# wavelength (AA)	 flux density (erg/cm**2/s/AA)	error
6616.9604 1.463e-16 2.993e-18
6618.2633 1.535e-16 3.069e-18
6619.5661 1.550e-16 3.077e-18
6620.8689 1.539e-16 3.078e-18
6622.1717 1.547e-16 3.082e-18
6623.4746 1.492e-16 3.038e-18
6624.7774 1.549e-16 3.082e-18
6626.0802 1.536e-16 3.075e-18
6627.3831 1.535e-16 3.082e-18
6628.6859 1.546e-16 3.092e-18
6629.9887 1.488e-16 3.052e-18
6631.2915 1.502e-16 3.054e-18
6632.5944 1.510e-16 3.064e-18
6633.8972 1.502e-16 3.071e-18
6635.2000 1.511e-16 3.076e-18
6636.5028 1.548e-16 3.104e-18
6637.8057 1.548e-16 3.103e-18
6639.1085 1.540e-16 3.092e-18
6640.4113 1.503e-16 3.053e-18
6641.7141 1.529e-16 3.062e-18
6643.0170 1.514e-16 3.049e-18
6644.3198 1.526e-16 3.059e-18
6645.6226 1.512e-16 3.045e-18
6646.9254 1.487e-16 3.031e-18
6648.2283 1.468e-16 3.017e-18
6649.5311 1.490e-16 3.035e-18
6650.8339 1.469e-16 3.022e-18
6652.1367 1.486e-16 3.033e-18
6653.4396 1.514e-16 3.057e-18
6654.7424 1.492e-16 3.038e-18
6656.0452 1.494e-16 3.031e-18
6657.3480 1.522e-16 3.055e-18
6658.6509 1.477e-16 3.022e-18
6659.9537 1.516e-16 3.056e-18
6661.2565 1.496e-16 3.043e-18
6662.5593 1.487e-16 3.039e-18
6663.8622 1.465e-16 3.019e-18
6665.1650 1.502e-16 3.046e-18
6666.4678 1.437e-16 2.997e-18
6667.7706 1.469e-16 3.027e-18
6669.0735 1.482e-16 3.033e-18
6670.3763 1.449e-16 3.004e-18
6671.6791 1.476e-16 3.028e-18
6672.9819 1.454e-16 3.008e-18
6674.2848 1.446e-16 2.998e-18
6675.5876 1.479e-16 3.022e-18
6676.8904 1.470e-16 3.011e-18
6678.1932 1.488e-16 3.031e-18
6679.4961 1.490e-16 3.021e-18
6680.7989 1.418e-16 2.971e-18
6682.1017 1.462e-16 3.008e-18
6683.4045 1.483e-16 3.021e-18
6684.7074 1.528e-16 3.054e-18
6686.0102 1.490e-16 3.028e-18
6687.3130 1.511e-16 3.049e-18
6688.6158 1.487e-16 3.021e-18
6689.9187 1.443e-16 2.988e-18
6691.2215 1.487e-16 3.021e-18
6692.5243 1.470e-16 3.010e-18
6693.8271 1.493e-16 3.024e-18
6695.1300 1.485e-16 3.022e-18
6696.4328 1.457e-16 2.998e-18
6697.7356 1.445e-16 2.990e-18
6699.0384 1.486e-16 3.028e-18
6700.3413 1.470e-16 3.021e-18
6701.6441 1.444e-16 3.004e-18
6702.9469 1.468e-16 3.019e-18
6704.2497 1.527e-16 3.062e-18
6705.5526 1.480e-16 3.019e-18
6706.8554 1.453e-16 2.996e-18
6708.1582 1.468e-16 3.011e-18
6709.4610 1.447e-16 3.001e-18
6710.7639 1.452e-16 3.002e-18
6712.0667 1.441e-16 2.982e-18
6713.3695 1.487e-16 3.017e-18
6714.6723 1.490e-16 3.025e-18
6715.9752 1.453e-16 3.002e-18
6717.2780 1.470e-16 3.014e-18
6718.5808 1.504e-16 3.035e-18
6719.8836 1.469e-16 3.012e-18
6721.1865 1.437e-16 2.991e-18
6722.4893 1.449e-16 3.001e-18
6723.7921 1.402e-16 2.970e-18
6725.0949 1.438e-16 3.010e-18
6726.3978 1.440e-16 3.020e-18
6727.7006 1.440e-16 3.024e-18
6729.0034 1.415e-16 3.009e-18
6730.3062 1.386e-16 2.978e-18
6731.6091 1.421e-16 2.998e-18
6732.9119 1.461e-16 3.020e-18
6734.2147 1.457e-16 3.001e-18
6735.5175 1.442e-16 2.985e-18
6736.8204 1.484e-16 3.024e-18
6738.1232 1.477e-16 3.010e-18
6739.4260 1.424e-16 2.962e-18
6740.7288 1.409e-16 2.958e-18
6742.0317 1.405e-16 2.962e-18
6743.3345 1.425e-16 2.979e-18
6744.6373 1.486e-16 3.023e-18
6745.9401 1.474e-16 3.010e-18
6747.2430 1.413e-16 2.966e-18
6748.5458 1.373e-16 2.927e-18
6749.8486 1.408e-16 2.955e-18
6751.1514 1.398e-16 2.956e-18
6752.4543 1.404e-16 2.959e-18
6753.7571 1.398e-16 2.949e-18
6755.0599 1.382e-16 2.942e-18
6756.3627 1.385e-16 2.939e-18
6757.6656 1.377e-16 2.937e-18
6758.9684 1.407e-16 2.960e-18
6760.2712 1.434e-16 2.975e-18
6761.5740 1.376e-16 2.932e-18
6762.8769 1.347e-16 2.920e-18
6764.1797 1.406e-16 2.962e-18
6765.4825 1.435e-16 2.982e-18
6766.7853 1.433e-16 2.979e-18
6768.0882 1.397e-16 2.951e-18
6769.3910 1.393e-16 2.948e-18
6770.6938 1.456e-16 2.995e-18
6771.9966 1.413e-16 2.959e-18
6773.2995 1.398e-16 2.951e-18
6774.6023 1.387e-16 2.946e-18
6775.9051 1.375e-16 2.936e-18
6777.2079 1.401e-16 2.950e-18
6778.5108 1.404e-16 2.956e-18
6779.8136 1.400e-16 2.950e-18
6781.1164 1.397e-16 2.947e-18
6782.4192 1.398e-16 2.954e-18
6783.7221 1.388e-16 2.949e-18
6785.0249 1.403e-16 2.958e-18
6786.3277 1.369e-16 2.932e-18
6787.6305 1.364e-16 2.933e-18
6788.9334 1.412e-16 2.971e-18
6790.2362 1.388e-16 2.955e-18
6791.5390 1.368e-16 2.939e-18
6792.8418 1.365e-16 2.933e-18
6794.1447 1.411e-16 2.960e-18
6795.4475 1.375e-16 2.931e-18
6796.7503 1.414e-16 2.959e-18
6798.0531 1.407e-16 2.955e-18
6799.3560 1.399e-16 2.952e-18
6800.6588 1.405e-16 2.950e-18
6801.9616 1.402e-16 2.950e-18
6803.2644 1.383e-16 2.941e-18
6804.5673 1.413e-16 2.968e-18
6805.8701 1.368e-16 2.932e-18
6807.1729 1.361e-16 2.929e-18
6808.4757 1.371e-16 2.936e-18
6809.7786 1.344e-16 2.916e-18
6811.0814 1.378e-16 2.942e-18
6812.3842 1.355e-16 2.922e-18
6813.6870 1.403e-16 2.963e-18
6814.9899 1.356e-16 2.926e-18
6816.2927 1.331e-16 2.906e-18
6817.5955 1.386e-16 2.953e-18
6818.8983 1.409e-16 2.966e-18
6820.2012 1.393e-16 2.948e-18
6821.5040 1.368e-16 2.934e-18
6822.8068 1.354e-16 2.928e-18
6824.1096 1.390e-16 2.962e-18
6825.4125 1.381e-16 2.981e-18
6826.7153 1.395e-16 3.069e-18
6828.0181 1.355e-16 3.149e-18
6829.3209 1.346e-16 3.226e-18
6830.6238 1.403e-16 3.294e-18
6831.9266 1.360e-16 3.276e-18
6833.2294 1.366e-16 3.290e-18
6834.5322 1.377e-16 3.277e-18
6835.8351 1.393e-16 3.231e-18
6837.1379 1.398e-16 3.199e-18
6838.4407 1.355e-16 3.112e-18
6839.7435 1.325e-16 3.012e-18
6841.0464 1.390e-16 3.034e-18
6842.3492 1.388e-16 3.035e-18
6843.6520 1.366e-16 3.018e-18
6844.9548 1.389e-16 3.024e-18
6846.2577 1.367e-16 2.979e-18
6847.5605 1.357e-16 2.954e-18
6848.8633 1.426e-16 3.000e-18
6850.1661 1.391e-16 2.976e-18
6851.4690 1.411e-16 2.991e-18
6852.7718 1.419e-16 2.998e-18
6854.0746 1.370e-16 2.959e-18
6855.3774 1.411e-16 2.984e-18
6856.6803 1.402e-16 2.977e-18
6857.9831 1.341e-16 2.929e-18
6859.2859 1.337e-16 2.931e-18
6860.5887 1.361e-16 2.991e-18
6861.8916 1.337e-16 3.106e-18
6863.1944 1.369e-16 3.316e-18
6864.4972 1.336e-16 3.383e-18
6865.8000 1.348e-16 3.390e-18
6867.1029 1.360e-16 3.346e-18
6868.4057 1.242e-16 3.117e-18
6869.7085 1.079e-16 2.808e-18
6871.0113 1.013e-16 2.706e-18
6872.3142 9.793e-17 2.662e-18
6873.6170 9.645e-17 2.647e-18
6874.9198 1.006e-16 2.670e-18
6876.2226 1.047e-16 2.677e-18
6877.5255 1.092e-16 2.714e-18
6878.8283 1.141e-16 2.773e-18
6880.1311 1.126e-16 2.784e-18
6881.4339 1.241e-16 2.907e-18
6882.7368 1.283e-16 2.941e-18
6884.0396 1.325e-16 2.970e-18
6885.3424 1.258e-16 2.909e-18
6886.6452 1.205e-16 2.850e-18
6887.9481 1.212e-16 2.878e-18
6889.2509 1.175e-16 2.887e-18
6890.5537 1.125e-16 2.858e-18
6891.8565 1.175e-16 2.895e-18
6893.1594 1.171e-16 2.868e-18
6894.4622 1.167e-16 2.830e-18
6895.7650 1.183e-16 2.814e-18
6897.0678 1.180e-16 2.814e-18
6898.3707 1.158e-16 2.808e-18
6899.6735 1.214e-16 2.895e-18
6900.9763 1.211e-16 2.936e-18
6902.2791 1.203e-16 2.934e-18
6903.5820 1.202e-16 2.924e-18
6904.8848 1.222e-16 2.917e-18
6906.1876 1.243e-16 2.890e-18
6907.4904 1.280e-16 2.886e-18
6908.7933 1.311e-16 2.914e-18
6910.0961 1.288e-16 2.925e-18
6911.3989 1.251e-16 2.960e-18
6912.7018 1.243e-16 2.996e-18
6914.0046 1.286e-16 3.037e-18
6915.3074 1.314e-16 3.053e-18
6916.6102 1.292e-16 3.003e-18
6917.9131 1.281e-16 2.933e-18
6919.2159 1.297e-16 2.912e-18
6920.5187 1.323e-16 2.966e-18
6921.8215 1.302e-16 3.056e-18
6923.1244 1.292e-16 3.144e-18
6924.4272 1.293e-16 3.166e-18
6925.7300 1.293e-16 3.151e-18
6927.0328 1.332e-16 3.133e-18
6928.3357 1.308e-16 3.011e-18
6929.6385 1.294e-16 2.916e-18
6930.9413 1.292e-16 2.901e-18
6932.2441 1.286e-16 2.899e-18
6933.5470 1.301e-16 2.909e-18
6934.8498 1.335e-16 2.928e-18
6936.1526 1.327e-16 2.940e-18
6937.4554 1.294e-16 2.954e-18
6938.7583 1.292e-16 3.004e-18
6940.0611 1.335e-16 3.073e-18
6941.3639 1.326e-16 3.066e-18
6942.6667 1.332e-16 3.052e-18
6943.9696 1.314e-16 3.004e-18
6945.2724 1.304e-16 2.955e-18
6946.5752 1.330e-16 3.013e-18
6947.8780 1.326e-16 3.132e-18
6949.1809 1.329e-16 3.217e-18
6950.4837 1.339e-16 3.252e-18
6951.7865 1.349e-16 3.242e-18
6953.0893 1.348e-16 3.179e-18
6954.3922 1.325e-16 3.030e-18
6955.6950 1.353e-16 2.976e-18
6956.9978 1.380e-16 2.987e-18
6958.3006 1.309e-16 2.927e-18
6959.6035 1.262e-16 2.887e-18
6960.9063 1.299e-16 2.926e-18
6962.2091 1.337e-16 2.947e-18
6963.5119 1.334e-16 2.943e-18
6964.8148 1.348e-16 2.958e-18
6966.1176 1.346e-16 2.956e-18
6967.4204 1.331e-16 2.967e-18
6968.7232 1.317e-16 2.986e-18
6970.0261 1.298e-16 3.000e-18
6971.3289 1.336e-16 3.043e-18
6972.6317 1.373e-16 3.054e-18
6973.9345 1.385e-16 3.046e-18
6975.2374 1.366e-16 3.012e-18
6976.5402 1.295e-16 2.979e-18
6977.8430 1.297e-16 3.066e-18
6979.1458 1.322e-16 3.125e-18
6980.4487 1.323e-16 3.122e-18
6981.7515 1.325e-16 3.091e-18
6983.0543 1.343e-16 3.050e-18
6984.3571 1.345e-16 2.976e-18
6985.6600 1.343e-16 2.956e-18
6986.9628 1.302e-16 2.928e-18
6988.2656 1.296e-16 2.921e-18
6989.5684 1.294e-16 2.915e-18
6990.8713 1.364e-16 2.966e-18
6992.1741 1.325e-16 2.933e-18
6993.4769 1.297e-16 2.916e-18
6994.7797 1.299e-16 2.916e-18
6996.0826 1.303e-16 2.921e-18
6997.3854 1.302e-16 2.925e-18
6998.6882 1.330e-16 2.951e-18
6999.9910 1.311e-16 2.940e-18
7001.2939 1.351e-16 2.980e-18
7002.5967 1.338e-16 2.980e-18
7003.8995 1.319e-16 2.977e-18
7005.2023 1.312e-16 2.975e-18
7006.5052 1.307e-16 2.965e-18
7007.8080 1.300e-16 2.948e-18
7009.1108 1.296e-16 2.948e-18
7010.4136 1.289e-16 2.967e-18
7011.7165 1.303e-16 3.002e-18
7013.0193 1.327e-16 3.031e-18
7014.3221 1.346e-16 3.039e-18
7015.6249 1.362e-16 3.019e-18
7016.9278 1.300e-16 2.931e-18
7018.2306 1.283e-16 2.902e-18
7019.5334 1.331e-16 2.940e-18
7020.8362 1.325e-16 2.936e-18
7022.1391 1.327e-16 2.935e-18
7023.4419 1.310e-16 2.923e-18
7024.7447 1.335e-16 2.952e-18
7026.0475 1.317e-16 2.933e-18
7027.3504 1.307e-16 2.918e-18
7028.6532 1.293e-16 2.911e-18
7029.9560 1.290e-16 2.917e-18
7031.2588 1.256e-16 2.887e-18
7032.5617 1.270e-16 2.901e-18
7033.8645 1.305e-16 2.931e-18
7035.1673 1.318e-16 2.942e-18
7036.4701 1.306e-16 2.931e-18
7037.7730 1.315e-16 2.938e-18
7039.0758 1.325e-16 2.948e-18
7040.3786 1.349e-16 2.971e-18
7041.6814 1.304e-16 2.939e-18
7042.9843 1.297e-16 2.938e-18
7044.2871 1.310e-16 2.955e-18
7045.5899 1.337e-16 2.986e-18
7046.8927 1.326e-16 2.994e-18
7048.1956 1.347e-16 3.029e-18
7049.4984 1.322e-16 3.018e-18
7050.8012 1.349e-16 3.032e-18
7052.1040 1.333e-16 3.013e-18
7053.4069 1.330e-16 2.988e-18
7054.7097 1.369e-16 3.007e-18
7056.0125 1.355e-16 2.993e-18
7057.3153 1.365e-16 2.989e-18
7058.6182 1.298e-16 2.931e-18
7059.9210 1.323e-16 2.947e-18
7061.2238 1.332e-16 2.960e-18
7062.5266 1.303e-16 2.941e-18
7063.8295 1.305e-16 2.950e-18
7065.1323 1.331e-16 2.971e-18
7066.4351 1.366e-16 3.002e-18
7067.7379 1.346e-16 2.987e-18
7069.0408 1.335e-16 2.980e-18
7070.3436 1.360e-16 3.001e-18
7071.6464 1.309e-16 2.953e-18
7072.9492 1.311e-16 2.951e-18
7074.2521 1.355e-16 2.986e-18
7075.5549 1.310e-16 2.945e-18
7076.8577 1.355e-16 2.983e-18
7078.1605 1.328e-16 2.966e-18
7079.4634 1.284e-16 2.935e-18
7080.7662 1.324e-16 2.963e-18
7082.0690 1.300e-16 2.945e-18
7083.3718 1.281e-16 2.930e-18
7084.6747 1.328e-16 2.968e-18
7085.9775 1.354e-16 2.986e-18
7087.2803 1.316e-16 2.960e-18
7088.5831 1.291e-16 2.945e-18
7089.8860 1.273e-16 2.940e-18
7091.1888 1.334e-16 2.987e-18
7092.4916 1.294e-16 2.951e-18
7093.7944 1.280e-16 2.933e-18
7095.0973 1.306e-16 2.943e-18
7096.4001 1.285e-16 2.922e-18
7097.7029 1.272e-16 2.901e-18
7099.0057 1.281e-16 2.907e-18
7100.3086 1.294e-16 2.921e-18
7101.6114 1.285e-16 2.917e-18
7102.9142 1.286e-16 2.915e-18
7104.2170 1.257e-16 2.892e-18
7105.5199 1.269e-16 2.899e-18
7106.8227 1.295e-16 2.926e-18
7108.1255 1.342e-16 2.963e-18
7109.4283 1.348e-16 2.962e-18
7110.7312 1.267e-16 2.894e-18
7112.0340 1.278e-16 2.910e-18
7113.3368 1.329e-16 2.956e-18
7114.6396 1.277e-16 2.912e-18
7115.9425 1.289e-16 2.925e-18
7117.2453 1.301e-16 2.935e-18
7118.5481 1.281e-16 2.919e-18
7119.8509 1.286e-16 2.924e-18
7121.1538 1.286e-16 2.924e-18
7122.4566 1.251e-16 2.899e-18
7123.7594 1.252e-16 2.899e-18
7125.0622 1.281e-16 2.918e-18
7126.3651 1.262e-16 2.902e-18
7127.6679 1.291e-16 2.934e-18
7128.9707 1.307e-16 2.952e-18
7130.2735 1.274e-16 2.936e-18
7131.5764 1.291e-16 2.958e-18
7132.8792 1.283e-16 2.948e-18
7134.1820 1.242e-16 2.906e-18
7135.4848 1.286e-16 2.938e-18
7136.7877 1.306e-16 2.953e-18
7138.0905 1.273e-16 2.922e-18
7139.3933 1.262e-16 2.916e-18
7140.6961 1.280e-16 2.933e-18
7141.9990 1.304e-16 2.961e-18
7143.3018 1.278e-16 2.952e-18
7144.6046 1.287e-16 2.968e-18
7145.9074 1.323e-16 3.007e-18
7147.2103 1.305e-16 2.993e-18
7148.5131 1.302e-16 2.983e-18
7149.8159 1.292e-16 2.964e-18
7151.1187 1.299e-16 2.963e-18
7152.4216 1.291e-16 2.957e-18
7153.7244 1.281e-16 2.940e-18
7155.0272 1.307e-16 2.951e-18
7156.3300 1.278e-16 2.931e-18
7157.6329 1.265e-16 2.924e-18
7158.9357 1.290e-16 2.943e-18
7160.2385 1.317e-16 2.967e-18
7161.5413 1.315e-16 2.974e-18
7162.8442 1.292e-16 2.961e-18
7164.1470 1.252e-16 2.929e-18
7165.4498 1.272e-16 2.943e-18
7166.7526 1.261e-16 2.937e-18
7168.0555 1.272e-16 2.947e-18
7169.3583 1.276e-16 2.945e-18
7170.6611 1.249e-16 2.920e-18
7171.9639 1.236e-16 2.903e-18
7173.2668 1.219e-16 2.881e-18
7174.5696 1.276e-16 2.935e-18
7175.8724 1.259e-16 2.932e-18
7177.1752 1.241e-16 2.919e-18
7178.4781 1.224e-16 2.909e-18
7179.7809 1.256e-16 2.938e-18
7181.0837 1.243e-16 2.927e-18
7182.3865 1.236e-16 2.918e-18
7183.6894 1.203e-16 2.887e-18
7184.9922 1.225e-16 2.901e-18
7186.2950 1.217e-16 2.881e-18
7187.5978 1.209e-16 2.881e-18
7188.9007 1.188e-16 2.859e-18
7190.2035 1.202e-16 2.870e-18
7191.5063 1.203e-16 2.869e-18
7192.8092 1.245e-16 2.913e-18
7194.1120 1.180e-16 2.851e-18
7195.4148 1.151e-16 2.823e-18
7196.7176 1.185e-16 2.864e-18
7198.0205 1.195e-16 2.871e-18
7199.3233 1.246e-16 2.912e-18
7200.6261 1.213e-16 2.881e-18
7201.9289 1.175e-16 2.857e-18
7203.2318 1.228e-16 2.894e-18
7204.5346 1.159e-16 2.833e-18
7205.8374 1.194e-16 2.858e-18
7207.1402 1.196e-16 2.870e-18
7208.4431 1.195e-16 2.872e-18
7209.7459 1.203e-16 2.880e-18
7211.0487 1.237e-16 2.918e-18
7212.3515 1.249e-16 2.921e-18
7213.6544 1.270e-16 2.935e-18
7214.9572 1.239e-16 2.912e-18
7216.2600 1.289e-16 2.950e-18
7217.5628 1.237e-16 2.913e-18
7218.8657 1.236e-16 2.912e-18
7220.1685 1.282e-16 2.958e-18
7221.4713 1.258e-16 2.940e-18
7222.7741 1.204e-16 2.898e-18
7224.0770 1.214e-16 2.912e-18
7225.3798 1.254e-16 2.947e-18
7226.6826 1.241e-16 2.931e-18
7227.9854 1.219e-16 2.908e-18
7229.2883 1.263e-16 2.956e-18
7230.5911 1.224e-16 2.927e-18
7231.8939 1.220e-16 2.926e-18
7233.1967 1.209e-16 2.921e-18
7234.4996 1.176e-16 2.897e-18
7235.8024 1.149e-16 2.902e-18
7237.1052 1.176e-16 3.016e-18
7238.4080 1.159e-16 3.202e-18
7239.7109 1.203e-16 3.448e-18
7241.0137 1.208e-16 3.581e-18
7242.3165 1.207e-16 3.644e-18
7243.6193 1.242e-16 3.731e-18
7244.9222 1.249e-16 3.742e-18
7246.2250 1.192e-16 3.604e-18
7247.5278 1.185e-16 3.494e-18
7248.8306 1.161e-16 3.368e-18
7250.1335 1.186e-16 3.196e-18
7251.4363 1.225e-16 3.063e-18
7252.7391 1.187e-16 3.038e-18
7254.0419 1.175e-16 3.049e-18
7255.3448 1.145e-16 3.035e-18
7256.6476 1.117e-16 3.001e-18
7257.9504 1.118e-16 2.954e-18
7259.2532 1.163e-16 2.930e-18
7260.5561 1.128e-16 2.878e-18
7261.8589 1.131e-16 2.872e-18
7263.1617 1.103e-16 2.843e-18
7264.4645 1.086e-16 2.823e-18
7265.7674 1.103e-16 2.843e-18
7267.0702 1.104e-16 2.859e-18
7268.3730 1.084e-16 2.851e-18
7269.6758 1.090e-16 2.858e-18
7270.9787 1.167e-16 2.937e-18
7272.2815 1.190e-16 2.977e-18
7273.5843 1.132e-16 3.057e-18
7274.8871 1.138e-16 3.376e-18
7276.1900 1.153e-16 3.698e-18
7277.4928 1.141e-16 3.788e-18
7278.7956 1.185e-16 3.790e-18
7280.0984 1.200e-16 3.662e-18
7281.4013 1.189e-16 3.363e-18
7282.7041 1.211e-16 3.187e-18
7284.0069 1.247e-16 3.278e-18
7285.3097 1.209e-16 3.314e-18
7286.6126 1.218e-16 3.309e-18
7287.9154 1.213e-16 3.256e-18
7289.2182 1.189e-16 3.127e-18
7290.5210 1.200e-16 3.002e-18
7291.8239 1.214e-16 2.965e-18
7293.1267 1.262e-16 3.015e-18
7294.4295 1.222e-16 3.013e-18
7295.7323 1.197e-16 3.036e-18
7297.0352 1.236e-16 3.081e-18
7298.3380 1.253e-16 3.085e-18
7299.6408 1.227e-16 3.049e-18
7300.9436 1.205e-16 3.006e-18
7302.2465 1.219e-16 3.053e-18
7303.5493 1.211e-16 3.129e-18
7304.8521 1.181e-16 3.144e-18
7306.1549 1.186e-16 3.153e-18
7307.4578 1.224e-16 3.144e-18
7308.7606 1.186e-16 3.027e-18
7310.0634 1.181e-16 2.963e-18
7311.3662 1.208e-16 2.969e-18
7312.6691 1.184e-16 2.975e-18
7313.9719 1.192e-16 3.117e-18
7315.2747 1.227e-16 3.422e-18
7316.5775 1.279e-16 3.664e-18
7317.8804 1.231e-16 3.659e-18
7319.1832 1.247e-16 3.620e-18
7320.4860 1.257e-16 3.481e-18
7321.7888 1.219e-16 3.154e-18
7323.0917 1.231e-16 2.984e-18
7324.3945 1.267e-16 2.995e-18
7325.6973 1.270e-16 3.012e-18
7327.0001 1.242e-16 3.055e-18
7328.3030 1.214e-16 3.163e-18
7329.6058 1.235e-16 3.271e-18
7330.9086 1.213e-16 3.263e-18
7332.2114 1.224e-16 3.254e-18
7333.5143 1.233e-16 3.182e-18
7334.8171 1.266e-16 3.078e-18
7336.1199 1.268e-16 3.018e-18
7337.4227 1.214e-16 3.007e-18
7338.7256 1.197e-16 3.178e-18
7340.0284 1.241e-16 3.550e-18
7341.3312 1.280e-16 3.786e-18
7342.6340 1.275e-16 3.814e-18
7343.9369 1.232e-16 3.727e-18
7345.2397 1.237e-16 3.536e-18
7346.5425 1.267e-16 3.215e-18
7347.8453 1.254e-16 3.027e-18
7349.1482 1.265e-16 3.011e-18
7350.4510 1.246e-16 2.995e-18
7351.7538 1.251e-16 2.998e-18
7353.0566 1.234e-16 2.986e-18
7354.3595 1.243e-16 2.988e-18
7355.6623 1.232e-16 3.008e-18
7356.9651 1.225e-16 3.076e-18
7358.2679 1.241e-16 3.198e-18
7359.5708 1.227e-16 3.241e-18
7360.8736 1.265e-16 3.269e-18
7362.1764 1.282e-16 3.252e-18
7363.4792 1.233e-16 3.120e-18
7364.7821 1.263e-16 3.043e-18
7366.0849 1.220e-16 3.008e-18
7367.3877 1.253e-16 3.183e-18
7368.6905 1.268e-16 3.464e-18
7369.9934 1.264e-16 3.604e-18
7371.2962 1.189e-16 3.555e-18
7372.5990 1.206e-16 3.519e-18
7373.9018 1.213e-16 3.350e-18
7375.2047 1.159e-16 3.044e-18
7376.5075 1.218e-16 2.973e-18
7377.8103 1.205e-16 2.945e-18
7379.1131 1.228e-16 2.962e-18
7380.4160 1.268e-16 2.994e-18
7381.7188 1.238e-16 2.966e-18
7383.0216 1.200e-16 2.930e-18
7384.3244 1.179e-16 2.914e-18
7385.6273 1.219e-16 2.940e-18
7386.9301 1.244e-16 2.966e-18
7388.2329 1.258e-16 2.989e-18
7389.5357 1.241e-16 2.994e-18
7390.8386 1.229e-16 3.064e-18
7392.1414 1.221e-16 3.129e-18
7393.4442 1.204e-16 3.145e-18
7394.7470 1.206e-16 3.132e-18
7396.0499 1.256e-16 3.138e-18
7397.3527 1.219e-16 3.031e-18
7398.6555 1.239e-16 3.008e-18
7399.9583 1.207e-16 3.083e-18
7401.2612 1.206e-16 3.253e-18
7402.5640 1.222e-16 3.351e-18
7403.8668 1.239e-16 3.371e-18
7405.1696 1.199e-16 3.284e-18
7406.4725 1.267e-16 3.227e-18
7407.7753 1.251e-16 3.044e-18
7409.0781 1.177e-16 2.909e-18
7410.3809 1.217e-16 2.940e-18
7411.6838 1.246e-16 2.970e-18
7412.9866 1.185e-16 2.922e-18
7414.2894 1.206e-16 2.944e-18
7415.5922 1.200e-16 2.948e-18
7416.8951 1.233e-16 2.969e-18
7418.1979 1.223e-16 2.946e-18
7419.5007 1.241e-16 2.957e-18
7420.8035 1.215e-16 2.942e-18
7422.1064 1.164e-16 2.889e-18
7423.4092 1.220e-16 2.939e-18
7424.7120 1.198e-16 2.919e-18
7426.0148 1.174e-16 2.897e-18
7427.3177 1.181e-16 2.931e-18
7428.6205 1.279e-16 3.055e-18
7429.9233 1.232e-16 3.053e-18
7431.2261 1.238e-16 3.065e-18
7432.5290 1.210e-16 3.030e-18
7433.8318 1.193e-16 2.996e-18
7435.1346 1.170e-16 2.944e-18
7436.4374 1.167e-16 2.962e-18
7437.7403 1.185e-16 3.067e-18
7439.0431 1.220e-16 3.155e-18
7440.3459 1.251e-16 3.182e-18
7441.6487 1.224e-16 3.132e-18
7442.9516 1.206e-16 3.057e-18
7444.2544 1.214e-16 2.981e-18
7445.5572 1.208e-16 2.939e-18
7446.8600 1.264e-16 2.974e-18
7448.1629 1.242e-16 2.952e-18
7449.4657 1.188e-16 2.903e-18
7450.7685 1.224e-16 2.941e-18
7452.0713 1.236e-16 2.953e-18
7453.3742 1.180e-16 2.905e-18
7454.6770 1.240e-16 2.953e-18
7455.9798 1.248e-16 2.954e-18
7457.2826 1.248e-16 2.963e-18
7458.5855 1.234e-16 2.945e-18
7459.8883 1.202e-16 2.931e-18
7461.1911 1.178e-16 2.934e-18
7462.4939 1.197e-16 2.974e-18
7463.7968 1.246e-16 3.029e-18
7465.0996 1.224e-16 3.035e-18
7466.4024 1.196e-16 3.039e-18
7467.7052 1.163e-16 3.009e-18
7469.0081 1.240e-16 3.079e-18
7470.3109 1.217e-16 3.083e-18
7471.6137 1.209e-16 3.106e-18
7472.9166 1.277e-16 3.202e-18
7474.2194 1.225e-16 3.198e-18
7475.5222 1.185e-16 3.147e-18
7476.8250 1.259e-16 3.174e-18
7478.1279 1.240e-16 3.154e-18
7479.4307 1.204e-16 3.128e-18
7480.7335 1.219e-16 3.152e-18
7482.0363 1.276e-16 3.247e-18
7483.3392 1.252e-16 3.274e-18
7484.6420 1.238e-16 3.244e-18
7485.9448 1.246e-16 3.197e-18
7487.2476 1.226e-16 3.125e-18
7488.5505 1.227e-16 3.052e-18
7489.8533 1.218e-16 2.967e-18
7491.1561 1.253e-16 2.987e-18
7492.4589 1.240e-16 2.998e-18
7493.7618 1.239e-16 3.026e-18
7495.0646 1.251e-16 3.040e-18
7496.3674 1.293e-16 3.074e-18
7497.6702 1.216e-16 2.987e-18
7498.9731 1.248e-16 2.990e-18
7500.2759 1.229e-16 2.958e-18
7501.5787 1.182e-16 2.916e-18
7502.8815 1.208e-16 2.941e-18
7504.1844 1.241e-16 2.973e-18
7505.4872 1.189e-16 2.923e-18
7506.7900 1.174e-16 2.905e-18
7508.0928 1.246e-16 2.974e-18
7509.3957 1.243e-16 2.970e-18
7510.6985 1.247e-16 2.971e-18
7512.0013 1.228e-16 2.952e-18
7513.3041 1.243e-16 2.967e-18
7514.6070 1.243e-16 2.967e-18
7515.9098 1.238e-16 2.980e-18
7517.2126 1.238e-16 2.989e-18
7518.5154 1.268e-16 3.022e-18
7519.8183 1.250e-16 3.030e-18
7521.1211 1.236e-16 3.078e-18
7522.4239 1.230e-16 3.263e-18
7523.7267 1.253e-16 3.505e-18
7525.0296 1.236e-16 3.575e-18
7526.3324 1.190e-16 3.537e-18
7527.6352 1.218e-16 3.491e-18
7528.9380 1.219e-16 3.331e-18
7530.2409 1.244e-16 3.202e-18
7531.5437 1.267e-16 3.185e-18
7532.8465 1.251e-16 3.162e-18
7534.1493 1.195e-16 3.097e-18
7535.4522 1.228e-16 3.064e-18
7536.7550 1.247e-16 3.014e-18
7538.0578 1.260e-16 3.007e-18
7539.3606 1.254e-16 3.021e-18
7540.6635 1.231e-16 3.019e-18
7541.9663 1.177e-16 2.975e-18
7543.2691 1.169e-16 2.960e-18
7544.5719 1.194e-16 2.972e-18
7545.8748 1.222e-16 2.966e-18
7547.1776 1.219e-16 2.951e-18
7548.4804 1.194e-16 2.929e-18
7549.7832 1.198e-16 2.933e-18
7551.0861 1.229e-16 2.970e-18
7552.3889 1.242e-16 2.982e-18
7553.6917 1.255e-16 2.997e-18
7554.9945 1.280e-16 3.040e-18
7556.2974 1.245e-16 3.057e-18
7557.6002 1.213e-16 3.079e-18
7558.9030 1.215e-16 3.089e-18
7560.2058 1.215e-16 3.082e-18
7561.5087 1.214e-16 3.056e-18
7562.8115 1.214e-16 2.996e-18
7564.1143 1.171e-16 2.925e-18
7565.4171 1.186e-16 2.934e-18
7566.7200 1.176e-16 2.941e-18
7568.0228 1.183e-16 2.964e-18
7569.3256 1.186e-16 3.045e-18
7570.6284 1.175e-16 3.209e-18
7571.9313 1.217e-16 3.386e-18
7573.2341 1.226e-16 3.427e-18
7574.5369 1.235e-16 3.418e-18
7575.8397 1.218e-16 3.317e-18
7577.1426 1.211e-16 3.134e-18
7578.4454 1.209e-16 2.983e-18
7579.7482 1.234e-16 2.980e-18
7581.0510 1.220e-16 2.959e-18
7582.3539 1.207e-16 2.947e-18
7583.6567 1.192e-16 2.964e-18
7584.9595 1.199e-16 3.042e-18
7586.2623 1.221e-16 3.118e-18
7587.5652 1.169e-16 3.091e-18
7588.8680 1.174e-16 3.087e-18
7590.1708 1.194e-16 3.073e-18
7591.4736 1.175e-16 2.983e-18
7592.7765 1.131e-16 2.883e-18
7594.0793 1.088e-16 2.833e-18
7595.3821 1.003e-16 2.760e-18
7596.6849 8.555e-17 2.665e-18
7597.9878 6.922e-17 2.582e-18
7599.2906 5.518e-17 2.476e-18
7600.5934 5.014e-17 2.400e-18
7601.8962 4.562e-17 2.325e-18
7603.1991 4.427e-17 2.236e-18
7604.5019 4.095e-17 2.091e-18
7605.8047 3.641e-17 1.995e-18
7607.1075 3.713e-17 2.004e-18
7608.4104 3.792e-17 2.016e-18
7609.7132 3.939e-17 2.047e-18
7611.0160 4.585e-17 2.135e-18
7612.3188 4.976e-17 2.194e-18
7613.6217 5.229e-17 2.236e-18
7614.9245 5.971e-17 2.324e-18
7616.2273 6.916e-17 2.469e-18
7617.5301 7.272e-17 2.580e-18
7618.8330 8.284e-17 2.732e-18
7620.1358 8.947e-17 2.816e-18
7621.4386 9.637e-17 2.866e-18
7622.7414 9.294e-17 2.788e-18
7624.0443 7.991e-17 2.601e-18
7625.3471 7.171e-17 2.491e-18
7626.6499 7.079e-17 2.517e-18
7627.9527 6.860e-17 2.569e-18
7629.2556 7.101e-17 2.651e-18
7630.5584 6.804e-17 2.615e-18
7631.8612 6.747e-17 2.596e-18
7633.1640 7.105e-17 2.580e-18
7634.4669 7.028e-17 2.494e-18
7635.7697 6.781e-17 2.426e-18
7637.0725 7.055e-17 2.450e-18
7638.3753 7.387e-17 2.488e-18
7639.6782 7.129e-17 2.459e-18
7640.9810 7.657e-17 2.519e-18
7642.2838 7.834e-17 2.546e-18
7643.5866 7.657e-17 2.522e-18
7644.8895 8.065e-17 2.565e-18
7646.1923 8.575e-17 2.624e-18
7647.4951 8.719e-17 2.644e-18
7648.7979 8.488e-17 2.621e-18
7650.1008 8.749e-17 2.645e-18
7651.4036 9.074e-17 2.703e-18
7652.7064 8.944e-17 2.724e-18
7654.0092 9.345e-17 2.782e-18
7655.3121 9.793e-17 2.824e-18
7656.6149 9.562e-17 2.797e-18
7657.9177 9.857e-17 2.800e-18
7659.2205 1.017e-16 2.806e-18
7660.5234 1.051e-16 2.869e-18
7661.8262 1.060e-16 2.949e-18
7663.1290 1.020e-16 2.959e-18
7664.4318 1.049e-16 2.991e-18
7665.7347 1.049e-16 2.982e-18
7667.0375 1.014e-16 2.895e-18
7668.3403 1.051e-16 2.858e-18
7669.6431 1.094e-16 2.875e-18
7670.9460 1.072e-16 2.863e-18
7672.2488 1.081e-16 2.873e-18
7673.5516 1.104e-16 2.893e-18
7674.8544 1.126e-16 2.915e-18
7676.1573 1.155e-16 2.930e-18
7677.4601 1.137e-16 2.921e-18
7678.7629 1.113e-16 2.906e-18
7680.0657 1.102e-16 2.890e-18
7681.3686 1.145e-16 2.936e-18
7682.6714 1.163e-16 2.966e-18
7683.9742 1.130e-16 2.938e-18
7685.2770 1.153e-16 2.969e-18
7686.5799 1.194e-16 3.010e-18
7687.8827 1.194e-16 3.009e-18
7689.1855 1.176e-16 3.004e-18
7690.4883 1.157e-16 2.997e-18
7691.7912 1.147e-16 2.998e-18
7693.0940 1.155e-16 3.007e-18
7694.3968 1.125e-16 2.979e-18
7695.6996 1.155e-16 3.000e-18
7697.0025 1.195e-16 3.033e-18
7698.3053 1.212e-16 3.058e-18
7699.6081 1.176e-16 3.058e-18
7700.9109 1.183e-16 3.079e-18
7702.2138 1.176e-16 3.067e-18
7703.5166 1.160e-16 3.037e-18
7704.8194 1.168e-16 3.014e-18
7706.1222 1.189e-16 3.007e-18
7707.4251 1.200e-16 3.013e-18
7708.7279 1.172e-16 3.003e-18
7710.0307 1.183e-16 3.120e-18
7711.3335 1.155e-16 3.378e-18
7712.6364 1.111e-16 3.617e-18
7713.9392 1.141e-16 3.790e-18
7715.2420 1.152e-16 3.995e-18
7716.5448 1.142e-16 4.139e-18
7717.8477 1.156e-16 4.065e-18
7719.1505 1.152e-16 3.874e-18
7720.4533 1.155e-16 3.727e-18
7721.7561 1.167e-16 3.496e-18
7723.0590 1.183e-16 3.259e-18
7724.3618 1.188e-16 3.198e-18
7725.6646 1.219e-16 3.275e-18
7726.9674 1.237e-16 3.313e-18
7728.2703 1.212e-16 3.276e-18
7729.5731 1.200e-16 3.213e-18
7730.8759 1.197e-16 3.140e-18
7732.1787 1.199e-16 3.076e-18
7733.4816 1.184e-16 3.047e-18
7734.7844 1.210e-16 3.088e-18
7736.0872 1.195e-16 3.088e-18
7737.3900 1.174e-16 3.072e-18
7738.6929 1.176e-16 3.069e-18
7739.9957 1.199e-16 3.084e-18
7741.2985 1.221e-16 3.089e-18
7742.6013 1.199e-16 3.061e-18
7743.9042 1.203e-16 3.068e-18
7745.2070 1.222e-16 3.084e-18
7746.5098 1.215e-16 3.090e-18
7747.8126 1.207e-16 3.217e-18
7749.1155 1.168e-16 3.561e-18
7750.4183 1.140e-16 3.958e-18
7751.7211 1.245e-16 4.188e-18
7753.0239 1.254e-16 4.170e-18
7754.3268 1.231e-16 4.025e-18
7755.6296 1.269e-16 3.680e-18
7756.9324 1.232e-16 3.271e-18
7758.2353 1.255e-16 3.278e-18
7759.5381 1.192e-16 3.403e-18
7760.8409 1.153e-16 3.459e-18
7762.1437 1.188e-16 3.464e-18
7763.4466 1.199e-16 3.435e-18
7764.7494 1.199e-16 3.298e-18
7766.0522 1.231e-16 3.147e-18
7767.3550 1.261e-16 3.107e-18
7768.6579 1.226e-16 3.090e-18
7769.9607 1.171e-16 3.059e-18
7771.2635 1.190e-16 3.126e-18
7772.5663 1.183e-16 3.222e-18
7773.8692 1.165e-16 3.283e-18
7775.1720 1.171e-16 3.307e-18
7776.4748 1.184e-16 3.298e-18
7777.7776 1.175e-16 3.245e-18
7779.0805 1.187e-16 3.257e-18
7780.3833 1.133e-16 3.264e-18
7781.6861 1.136e-16 3.288e-18
7782.9889 1.224e-16 3.353e-18
7784.2918 1.232e-16 3.325e-18
7785.5946 1.165e-16 3.177e-18
7786.8974 1.137e-16 3.058e-18
7788.2002 1.165e-16 3.069e-18
7789.5031 1.206e-16 3.126e-18
7790.8059 1.166e-16 3.149e-18
7792.1087 1.188e-16 3.357e-18
7793.4115 1.223e-16 3.724e-18
7794.7144 1.254e-16 3.973e-18
7796.0172 1.193e-16 3.923e-18
7797.3200 1.181e-16 3.855e-18
7798.6228 1.205e-16 3.656e-18
7799.9257 1.204e-16 3.293e-18
7801.2285 1.215e-16 3.101e-18
7802.5313 1.186e-16 3.064e-18
7803.8341 1.209e-16 3.087e-18
7805.1370 1.192e-16 3.092e-18
7806.4398 1.214e-16 3.185e-18
7807.7426 1.205e-16 3.345e-18
7809.0454 1.147e-16 3.417e-18
7810.3483 1.146e-16 3.414e-18
7811.6511 1.193e-16 3.444e-18
7812.9539 1.230e-16 3.383e-18
7814.2567 1.169e-16 3.184e-18
7815.5596 1.169e-16 3.105e-18
7816.8624 1.220e-16 3.145e-18
7818.1652 1.175e-16 3.140e-18
7819.4680 1.153e-16 3.344e-18
7820.7709 1.175e-16 3.780e-18
7822.0737 1.191e-16 4.067e-18
7823.3765 1.267e-16 4.122e-18
7824.6793 1.257e-16 4.062e-18
7825.9822 1.173e-16 3.767e-18
7827.2850 1.201e-16 3.376e-18
7828.5878 1.195e-16 3.144e-18
7829.8906 1.168e-16 3.116e-18
7831.1935 1.158e-16 3.093e-18
7832.4963 1.127e-16 3.064e-18
7833.7991 1.159e-16 3.083e-18
7835.1019 1.191e-16 3.112e-18
7836.4048 1.165e-16 3.089e-18
7837.7076 1.171e-16 3.104e-18
7839.0104 1.159e-16 3.144e-18
7840.3132 1.226e-16 3.333e-18
7841.6161 1.196e-16 3.433e-18
7842.9189 1.142e-16 3.407e-18
7844.2217 1.189e-16 3.432e-18
7845.5245 1.167e-16 3.340e-18
7846.8274 1.169e-16 3.214e-18
7848.1302 1.178e-16 3.145e-18
7849.4330 1.178e-16 3.234e-18
7850.7358 1.183e-16 3.400e-18
7852.0387 1.230e-16 3.769e-18
7853.3415 1.229e-16 4.161e-18
7854.6443 1.195e-16 4.221e-18
7855.9471 1.183e-16 4.172e-18
7857.2500 1.133e-16 4.036e-18
7858.5528 1.180e-16 3.801e-18
7859.8556 1.221e-16 3.617e-18
7861.1584 1.223e-16 3.689e-18
7862.4613 1.227e-16 3.685e-18
7863.7641 1.160e-16 3.560e-18
7865.0669 1.178e-16 3.448e-18
7866.3697 1.172e-16 3.323e-18
7867.6726 1.212e-16 3.362e-18
7868.9754 1.193e-16 3.499e-18
7870.2782 1.203e-16 3.723e-18
7871.5810 1.218e-16 3.831e-18
7872.8839 1.200e-16 3.761e-18
7874.1867 1.195e-16 3.649e-18
7875.4895 1.188e-16 3.471e-18
7876.7923 1.168e-16 3.257e-18
7878.0952 1.154e-16 3.274e-18
7879.3980 1.124e-16 3.357e-18
7880.7008 1.128e-16 3.462e-18
7882.0036 1.184e-16 3.566e-18
7883.3065 1.197e-16 3.523e-18
7884.6093 1.157e-16 3.384e-18
7885.9121 1.155e-16 3.309e-18
7887.2149 1.153e-16 3.275e-18
7888.5178 1.158e-16 3.400e-18
7889.8206 1.174e-16 3.629e-18
7891.1234 1.174e-16 3.684e-18
7892.4262 1.184e-16 3.695e-18
7893.7291 1.199e-16 3.627e-18
7895.0319 1.153e-16 3.397e-18
7896.3347 1.169e-16 3.193e-18
7897.6375 1.173e-16 3.152e-18
7898.9404 1.147e-16 3.120e-18
7900.2432 1.148e-16 3.105e-18
7901.5460 1.123e-16 3.092e-18
7902.8488 1.135e-16 3.106e-18
7904.1517 1.190e-16 3.162e-18
7905.4545 1.194e-16 3.161e-18
7906.7573 1.187e-16 3.162e-18
7908.0601 1.189e-16 3.156e-18
7909.3630 1.150e-16 3.146e-18
7910.6658 1.148e-16 3.280e-18
7911.9686 1.163e-16 3.707e-18
7913.2714 1.172e-16 4.295e-18
7914.5743 1.160e-16 4.544e-18
7915.8771 1.187e-16 4.557e-18
7917.1799 1.172e-16 4.421e-18
7918.4827 1.149e-16 4.077e-18
7919.7856 1.172e-16 3.694e-18
7921.0884 1.183e-16 3.774e-18
7922.3912 1.220e-16 3.835e-18
7923.6940 1.175e-16 3.787e-18
7924.9969 1.224e-16 3.716e-18
7926.2997 1.178e-16 3.439e-18
7927.6025 1.146e-16 3.181e-18
7928.9053 1.127e-16 3.192e-18
7930.2082 1.186e-16 3.395e-18
7931.5110 1.145e-16 3.520e-18
7932.8138 1.159e-16 3.565e-18
7934.1166 1.122e-16 3.535e-18
7935.4195 1.194e-16 3.511e-18
7936.7223 1.189e-16 3.336e-18
7938.0251 1.197e-16 3.192e-18
7939.3279 1.154e-16 3.130e-18
7940.6308 1.138e-16 3.109e-18
7941.9336 1.161e-16 3.144e-18
7943.2364 1.202e-16 3.178e-18
7944.5392 1.189e-16 3.185e-18
7945.8421 1.157e-16 3.180e-18
7947.1449 1.162e-16 3.257e-18
7948.4477 1.252e-16 3.481e-18
7949.7505 1.182e-16 3.515e-18
7951.0534 1.174e-16 3.514e-18
7952.3562 1.172e-16 3.487e-18
7953.6590 1.140e-16 3.374e-18
7954.9618 1.134e-16 3.193e-18
7956.2647 1.161e-16 3.129e-18
7957.5675 1.183e-16 3.141e-18
7958.8703 1.186e-16 3.138e-18
7960.1731 1.137e-16 3.098e-18
7961.4760 1.209e-16 3.217e-18
7962.7788 1.209e-16 3.476e-18
7964.0816 1.154e-16 3.942e-18
7965.3844 1.123e-16 4.171e-18
7966.6873 1.172e-16 4.242e-18
7967.9901 1.180e-16 4.219e-18
7969.2929 1.149e-16 3.938e-18
7970.5957 1.158e-16 3.427e-18
7971.8986 1.183e-16 3.230e-18
7973.2014 1.158e-16 3.181e-18
7974.5042 1.166e-16 3.170e-18
7975.8070 1.166e-16 3.207e-18
7977.1099 1.227e-16 3.347e-18
7978.4127 1.240e-16 3.515e-18
7979.7155 1.164e-16 3.652e-18
7981.0183 1.169e-16 3.690e-18
7982.3212 1.204e-16 3.679e-18
7983.6240 1.143e-16 3.522e-18
7984.9268 1.172e-16 3.364e-18
7986.2296 1.155e-16 3.176e-18
7987.5325 1.135e-16 3.133e-18
7988.8353 1.142e-16 3.154e-18
7990.1381 1.132e-16 3.203e-18
7991.4409 1.184e-16 3.512e-18
7992.7438 1.140e-16 4.039e-18
7994.0466 1.141e-16 4.322e-18
7995.3494 1.178e-16 4.359e-18
7996.6522 1.191e-16 4.302e-18
7997.9551 1.233e-16 4.058e-18
7999.2579 1.171e-16 3.447e-18
8000.5607 1.147e-16 3.187e-18
8001.8635 1.165e-16 3.177e-18
8003.1664 1.123e-16 3.129e-18
8004.4692 1.114e-16 3.116e-18
8005.7720 1.154e-16 3.147e-18
8007.0748 1.211e-16 3.194e-18
8008.3777 1.188e-16 3.167e-18
8009.6805 1.168e-16 3.147e-18
8010.9833 1.167e-16 3.164e-18
8012.2861 1.196e-16 3.281e-18
8013.5890 1.197e-16 3.464e-18
8014.8918 1.181e-16 3.539e-18
8016.1946 1.194e-16 3.544e-18
8017.4974 1.180e-16 3.510e-18
8018.8003 1.215e-16 3.459e-18
8020.1031 1.152e-16 3.248e-18
8021.4059 1.182e-16 3.209e-18
8022.7087 1.183e-16 3.260e-18
8024.0116 1.177e-16 3.468e-18
8025.3144 1.233e-16 3.892e-18
8026.6172 1.191e-16 4.046e-18
8027.9200 1.161e-16 4.054e-18
8029.2229 1.216e-16 4.056e-18
8030.5257 1.209e-16 3.822e-18
8031.8285 1.196e-16 3.432e-18
8033.1313 1.180e-16 3.251e-18
8034.4342 1.124e-16 3.166e-18
8035.7370 1.115e-16 3.140e-18
8037.0398 1.155e-16 3.155e-18
8038.3427 1.165e-16 3.157e-18
8039.6455 1.150e-16 3.137e-18
8040.9483 1.146e-16 3.136e-18
8042.2511 1.164e-16 3.142e-18
8043.5540 1.152e-16 3.136e-18
8044.8568 1.194e-16 3.178e-18
8046.1596 1.179e-16 3.161e-18
8047.4624 1.163e-16 3.154e-18
8048.7653 1.186e-16 3.187e-18
8050.0681 1.160e-16 3.216e-18
8051.3709 1.149e-16 3.329e-18
8052.6737 1.149e-16 3.390e-18
8053.9766 1.182e-16 3.415e-18
8055.2794 1.188e-16 3.405e-18
8056.5822 1.167e-16 3.311e-18
8057.8850 1.157e-16 3.192e-18
8059.1879 1.178e-16 3.184e-18
8060.4907 1.161e-16 3.314e-18
8061.7935 1.184e-16 3.553e-18
8063.0963 1.207e-16 3.674e-18
8064.3992 1.202e-16 3.666e-18
8065.7020 1.255e-16 3.676e-18
8067.0048 1.234e-16 3.510e-18
8068.3076 1.182e-16 3.250e-18
8069.6105 1.155e-16 3.141e-18
8070.9133 1.144e-16 3.131e-18
8072.2161 1.185e-16 3.163e-18
8073.5189 1.201e-16 3.191e-18
8074.8218 1.185e-16 3.187e-18
8076.1246 1.150e-16 3.155e-18
8077.4274 1.160e-16 3.173e-18
8078.7302 1.226e-16 3.233e-18
8080.0331 1.196e-16 3.203e-18
8081.3359 1.188e-16 3.200e-18
8082.6387 1.234e-16 3.246e-18
8083.9415 1.201e-16 3.233e-18
8085.2444 1.247e-16 3.289e-18
8086.5472 1.257e-16 3.291e-18
8087.8500 1.186e-16 3.220e-18
8089.1528 1.223e-16 3.232e-18
8090.4557 1.261e-16 3.248e-18
8091.7585 1.268e-16 3.266e-18
8093.0613 1.265e-16 3.319e-18
8094.3641 1.280e-16 3.374e-18
8095.6670 1.286e-16 3.365e-18
8096.9698 1.198e-16 3.289e-18
8098.2726 1.148e-16 3.225e-18
8099.5754 1.159e-16 3.192e-18
8100.8783 1.141e-16 3.206e-18
8102.1811 1.148e-16 3.304e-18
8103.4839 1.168e-16 3.384e-18
8104.7867 1.192e-16 3.408e-18
8106.0896 1.180e-16 3.376e-18
8107.3924 1.224e-16 3.345e-18
8108.6952 1.316e-16 3.341e-18
8109.9980 1.250e-16 3.261e-18
8111.3009 1.223e-16 3.233e-18
8112.6037 1.216e-16 3.218e-18
8113.9065 1.233e-16 3.237e-18
8115.2093 1.234e-16 3.233e-18
8116.5122 1.170e-16 3.174e-18
8117.8150 1.203e-16 3.205e-18
8119.1178 1.252e-16 3.241e-18
8120.4206 1.246e-16 3.248e-18
8121.7235 1.190e-16 3.202e-18
8123.0263 1.171e-16 3.173e-18
8124.3291 1.167e-16 3.175e-18
8125.6319 1.169e-16 3.177e-18
8126.9348 1.155e-16 3.159e-18
8128.2376 1.182e-16 3.181e-18
8129.5404 1.160e-16 3.175e-18
8130.8432 1.122e-16 3.145e-18
8132.1461 1.152e-16 3.165e-18
8133.4489 1.144e-16 3.153e-18
8134.7517 1.177e-16 3.186e-18
8136.0545 1.193e-16 3.208e-18
8137.3574 1.136e-16 3.178e-18
8138.6602 1.116e-16 3.185e-18
8139.9630 1.117e-16 3.195e-18
8141.2658 1.155e-16 3.236e-18
8142.5687 1.145e-16 3.227e-18
8143.8715 1.104e-16 3.167e-18
8145.1743 1.146e-16 3.197e-18
8146.4771 1.132e-16 3.221e-18
8147.7800 1.107e-16 3.217e-18
8149.0828 1.125e-16 3.231e-18
8150.3856 1.102e-16 3.211e-18
8151.6884 1.151e-16 3.223e-18
8152.9913 1.197e-16 3.217e-18
8154.2941 1.161e-16 3.169e-18
8155.5969 1.142e-16 3.156e-18
8156.8997 1.119e-16 3.132e-18
8158.2026 1.155e-16 3.171e-18
8159.5054 1.124e-16 3.142e-18
8160.8082 1.127e-16 3.145e-18
8162.1110 1.080e-16 3.103e-18
8163.4139 1.057e-16 3.088e-18
8164.7167 1.097e-16 3.119e-18
8166.0195 1.106e-16 3.132e-18
8167.3223 1.116e-16 3.139e-18
8168.6252 1.057e-16 3.090e-18
8169.9280 1.103e-16 3.125e-18
8171.2308 1.145e-16 3.165e-18
8172.5336 1.116e-16 3.145e-18
8173.8365 1.127e-16 3.164e-18
8175.1393 1.109e-16 3.150e-18
8176.4421 1.144e-16 3.173e-18
8177.7449 1.140e-16 3.180e-18
8179.0478 1.033e-16 3.106e-18
8180.3506 1.048e-16 3.090e-18
8181.6534 1.074e-16 3.123e-18
8182.9562 1.075e-16 3.121e-18
8184.2591 1.083e-16 3.128e-18
8185.5619 1.092e-16 3.145e-18
8186.8647 1.117e-16 3.184e-18
8188.1675 1.114e-16 3.194e-18
8189.4704 1.099e-16 3.193e-18
8190.7732 1.089e-16 3.178e-18
8192.0760 1.056e-16 3.145e-18
8193.3788 1.076e-16 3.164e-18
8194.6817 1.064e-16 3.167e-18
8195.9845 1.106e-16 3.219e-18
8197.2873 1.095e-16 3.202e-18
8198.5901 1.124e-16 3.220e-18
8199.8930 1.092e-16 3.164e-18
8201.1958 1.125e-16 3.195e-18
8202.4986 1.121e-16 3.198e-18
8203.8014 1.130e-16 3.211e-18
8205.1043 1.095e-16 3.175e-18
8206.4071 1.105e-16 3.188e-18
8207.7099 1.119e-16 3.205e-18
8209.0127 1.132e-16 3.214e-18
8210.3156 1.101e-16 3.181e-18
8211.6184 1.123e-16 3.203e-18
8212.9212 1.085e-16 3.170e-18
8214.2240 1.101e-16 3.176e-18
8215.5269 1.134e-16 3.209e-18
8216.8297 1.141e-16 3.229e-18
8218.1325 1.130e-16 3.209e-18
8219.4353 1.125e-16 3.206e-18
8220.7382 1.139e-16 3.217e-18
8222.0410 1.127e-16 3.212e-18
8223.3438 1.103e-16 3.197e-18
8224.6466 1.070e-16 3.171e-18
8225.9495 1.080e-16 3.179e-18
8227.2523 1.055e-16 3.155e-18
8228.5551 9.903e-17 3.088e-18
8229.8579 9.653e-17 3.055e-18
8231.1608 1.004e-16 3.090e-18
8232.4636 1.018e-16 3.109e-18
8233.7664 1.035e-16 3.131e-18
8235.0692 1.059e-16 3.156e-18
8236.3721 1.045e-16 3.152e-18
8237.6749 1.089e-16 3.198e-18
8238.9777 1.069e-16 3.185e-18
8240.2805 1.126e-16 3.242e-18
8241.5834 1.125e-16 3.252e-18
8242.8862 1.086e-16 3.219e-18
8244.1890 1.080e-16 3.218e-18
8245.4918 1.118e-16 3.253e-18
8246.7947 1.091e-16 3.239e-18
8248.0975 1.069e-16 3.226e-18
8249.4003 1.138e-16 3.292e-18
8250.7031 1.123e-16 3.277e-18
8252.0060 1.136e-16 3.293e-18
8253.3088 1.129e-16 3.278e-18
8254.6116 1.090e-16 3.238e-18
8255.9144 1.096e-16 3.240e-18
8257.2173 1.084e-16 3.232e-18
8258.5201 1.071e-16 3.226e-18
8259.8229 1.057e-16 3.202e-18
8261.1257 1.077e-16 3.217e-18
8262.4286 1.097e-16 3.242e-18
8263.7314 1.077e-16 3.226e-18
8265.0342 1.129e-16 3.280e-18
8266.3370 1.114e-16 3.266e-18
8267.6399 1.084e-16 3.242e-18
8268.9427 1.133e-16 3.289e-18
8270.2455 1.112e-16 3.270e-18
8271.5483 1.079e-16 3.238e-18
8272.8512 1.094e-16 3.256e-18
8274.1540 1.100e-16 3.272e-18
8275.4568 1.113e-16 3.299e-18
8276.7596 1.067e-16 3.349e-18
8278.0625 1.056e-16 3.496e-18
8279.3653 1.089e-16 3.702e-18
8280.6681 1.048e-16 3.931e-18
8281.9709 1.075e-16 4.143e-18
8283.2738 1.068e-16 4.101e-18
8284.5766 1.017e-16 3.983e-18
8285.8794 1.057e-16 3.984e-18
8287.1822 1.113e-16 4.107e-18
8288.4851 1.105e-16 4.291e-18
8289.7879 1.026e-16 4.338e-18
8291.0907 1.038e-16 4.296e-18
8292.3935 1.098e-16 4.184e-18
8293.6964 1.073e-16 3.819e-18
8294.9992 1.050e-16 3.555e-18
8296.3020 1.062e-16 3.727e-18
8297.6048 1.084e-16 4.133e-18
8298.9077 1.089e-16 4.559e-18
8300.2105 1.051e-16 4.604e-18
8301.5133 1.051e-16 4.491e-18
8302.8161 1.067e-16 4.286e-18
8304.1190 1.085e-16 3.884e-18
8305.4218 1.071e-16 3.430e-18
8306.7246 1.028e-16 3.323e-18
8308.0274 1.018e-16 3.318e-18
8309.3303 1.052e-16 3.481e-18
8310.6331 1.063e-16 3.679e-18
8311.9359 1.094e-16 3.749e-18
8313.2387 1.073e-16 3.718e-18
8314.5416 1.110e-16 3.708e-18
8315.8444 1.034e-16 3.491e-18
8317.1472 1.034e-16 3.317e-18
8318.4500 1.038e-16 3.312e-18
8319.7529 1.026e-16 3.310e-18
8321.0557 1.030e-16 3.314e-18
8322.3585 1.047e-16 3.324e-18
8323.6614 1.057e-16 3.323e-18
8324.9642 1.019e-16 3.284e-18
8326.2670 1.037e-16 3.292e-18
8327.5698 1.065e-16 3.321e-18
8328.8727 1.038e-16 3.295e-18
8330.1755 1.019e-16 3.282e-18
8331.4783 1.040e-16 3.303e-18
8332.7811 1.084e-16 3.337e-18
8334.0840 1.040e-16 3.294e-18
8335.3868 1.034e-16 3.306e-18
8336.6896 9.969e-17 3.281e-18
8337.9924 1.073e-16 3.372e-18
8339.2953 1.043e-16 3.362e-18
8340.5981 1.075e-16 3.435e-18
8341.9009 1.020e-16 3.659e-18
8343.2037 1.080e-16 4.564e-18
8344.5066 1.087e-16 5.612e-18
8345.8094 1.112e-16 5.848e-18
8347.1122 1.095e-16 5.805e-18
8348.4150 1.087e-16 5.541e-18
8349.7179 1.144e-16 4.787e-18
8351.0207 1.101e-16 3.915e-18
8352.3235 1.088e-16 4.160e-18
8353.6263 1.089e-16 4.387e-18
8354.9292 1.075e-16 4.370e-18
8356.2320 1.060e-16 4.288e-18
8357.5348 1.102e-16 4.073e-18
8358.8376 1.048e-16 3.550e-18
8360.1405 1.079e-16 3.443e-18
8361.4433 1.060e-16 3.449e-18
8362.7461 1.057e-16 3.506e-18
8364.0489 1.123e-16 3.741e-18
8365.3518 1.047e-16 3.775e-18
8366.6546 1.071e-16 3.793e-18
8367.9574 1.028e-16 3.726e-18
8369.2602 1.053e-16 3.659e-18
8370.5631 1.049e-16 3.463e-18
8371.8659 1.071e-16 3.404e-18
8373.1687 1.046e-16 3.373e-18
8374.4715 1.018e-16 3.343e-18
8375.7744 1.050e-16 3.385e-18
8377.0772 1.082e-16 3.412e-18
8378.3800 1.113e-16 3.470e-18
8379.6828 1.047e-16 3.494e-18
8380.9857 1.035e-16 3.711e-18
8382.2885 1.037e-16 4.038e-18
8383.5913 1.078e-16 4.147e-18
8384.8941 1.070e-16 4.116e-18
8386.1970 1.074e-16 4.033e-18
8387.4998 1.051e-16 3.741e-18
8388.8026 1.056e-16 3.482e-18
8390.1054 1.039e-16 3.399e-18
8391.4083 1.089e-16 3.450e-18
8392.7111 1.062e-16 3.431e-18
8394.0139 1.043e-16 3.411e-18
8395.3167 1.054e-16 3.433e-18
8396.6196 1.063e-16 3.585e-18
8397.9224 1.018e-16 4.318e-18
8399.2252 9.799e-17 5.081e-18
8400.5280 1.011e-16 5.299e-18
8401.8309 1.084e-16 5.332e-18
8403.1337 1.116e-16 5.187e-18
8404.4365 1.085e-16 4.350e-18
8405.7393 1.031e-16 3.554e-18
8407.0422 1.042e-16 3.390e-18
8408.3450 1.063e-16 3.407e-18
8409.6478 1.056e-16 3.401e-18
8410.9506 1.019e-16 3.382e-18
8412.2535 1.066e-16 3.440e-18
8413.5563 1.088e-16 3.685e-18
8414.8591 1.058e-16 4.070e-18
8416.1619 1.082e-16 4.277e-18
8417.4648 1.056e-16 4.246e-18
8418.7676 9.339e-17 4.120e-18
8420.0704 9.430e-17 3.860e-18
8421.3732 1.051e-16 3.565e-18
8422.6761 1.042e-16 3.424e-18
8423.9789 1.011e-16 3.414e-18
8425.2817 1.033e-16 3.455e-18
8426.5845 1.057e-16 3.510e-18
8427.8874 1.038e-16 3.766e-18
8429.1902 1.015e-16 4.654e-18
8430.4930 9.933e-17 5.424e-18
8431.7958 9.896e-17 5.507e-18
8433.0987 1.047e-16 5.527e-18
8434.4015 1.028e-16 5.225e-18
8435.7043 9.686e-17 4.254e-18
8437.0071 9.737e-17 3.464e-18
8438.3100 9.906e-17 3.415e-18
8439.6128 9.829e-17 3.375e-18
8440.9156 9.897e-17 3.360e-18
8442.2184 1.016e-16 3.386e-18
8443.5213 1.008e-16 3.372e-18
8444.8241 1.050e-16 3.430e-18
8446.1269 1.040e-16 3.457e-18
8447.4297 1.034e-16 3.473e-18
8448.7326 1.032e-16 3.474e-18
8450.0354 1.028e-16 3.552e-18
8451.3382 1.040e-16 3.860e-18
8452.6410 1.067e-16 4.140e-18
8453.9439 1.041e-16 4.144e-18
8455.2467 9.639e-17 4.083e-18
8456.5495 1.060e-16 4.026e-18
8457.8523 1.028e-16 3.660e-18
8459.1552 9.963e-17 3.386e-18
8460.4580 1.001e-16 3.400e-18
8461.7608 1.028e-16 3.432e-18
8463.0636 9.569e-17 3.569e-18
8464.3665 9.958e-17 4.295e-18
8465.6693 1.064e-16 4.989e-18
8466.9721 1.079e-16 5.074e-18
8468.2749 1.111e-16 5.084e-18
8469.5778 1.029e-16 4.781e-18
8470.8806 1.065e-16 4.096e-18
8472.1834 1.052e-16 3.511e-18
8473.4862 9.810e-17 3.399e-18
8474.7891 9.619e-17 3.405e-18
8476.0919 9.795e-17 3.433e-18
8477.3947 1.079e-16 3.516e-18
8478.6975 1.002e-16 3.438e-18
8480.0004 1.033e-16 3.449e-18
8481.3032 1.001e-16 3.392e-18
8482.6060 9.752e-17 3.383e-18
8483.9088 9.440e-17 3.342e-18
8485.2117 9.859e-17 3.378e-18
8486.5145 9.969e-17 3.405e-18
8487.8173 1.016e-16 3.412e-18
8489.1201 1.001e-16 3.392e-18
8490.4230 9.679e-17 3.365e-18
8491.7258 1.027e-16 3.537e-18
8493.0286 1.040e-16 3.822e-18
8494.3314 1.014e-16 3.917e-18
8495.6343 1.032e-16 3.944e-18
8496.9371 1.062e-16 3.954e-18
8498.2399 9.948e-17 3.744e-18
8499.5427 9.976e-17 3.495e-18
8500.8456 1.032e-16 3.476e-18
8502.1484 9.542e-17 3.443e-18
8503.4512 1.038e-16 3.827e-18
8504.7540 1.012e-16 4.256e-18
8506.0569 9.863e-17 4.372e-18
8507.3597 1.002e-16 4.373e-18
8508.6625 9.720e-17 4.262e-18
8509.9653 9.255e-17 3.841e-18
8511.2682 9.537e-17 3.447e-18
8512.5710 9.698e-17 3.347e-18
8513.8738 9.760e-17 3.378e-18
8515.1766 9.579e-17 3.368e-18
8516.4795 9.382e-17 3.338e-18
8517.7823 9.990e-17 3.393e-18
8519.0851 1.017e-16 3.424e-18
8520.3879 9.790e-17 3.388e-18
8521.6908 1.006e-16 3.421e-18
8522.9936 1.003e-16 3.433e-18
8524.2964 9.966e-17 3.431e-18
8525.5992 9.977e-17 3.417e-18
8526.9021 9.489e-17 3.346e-18
8528.2049 9.942e-17 3.399e-18
8529.5077 1.002e-16 3.402e-18
8530.8105 9.788e-17 3.378e-18
8532.1134 9.820e-17 3.385e-18
8533.4162 9.654e-17 3.369e-18
8534.7190 9.851e-17 3.384e-18
8536.0218 9.919e-17 3.396e-18
8537.3247 9.658e-17 3.459e-18
8538.6275 9.429e-17 3.558e-18
8539.9303 9.687e-17 3.627e-18
8541.2331 1.030e-16 3.679e-18
8542.5360 9.529e-17 3.578e-18
8543.8388 9.303e-17 3.457e-18
8545.1416 9.681e-17 3.411e-18
8546.4444 1.013e-16 3.489e-18
8547.7473 1.035e-16 3.703e-18
8549.0501 9.691e-17 3.814e-18
8550.3529 9.708e-17 3.852e-18
8551.6557 1.017e-16 3.912e-18
8552.9586 1.015e-16 3.836e-18
8554.2614 9.947e-17 3.602e-18
8555.5642 9.740e-17 3.431e-18
8556.8670 9.717e-17 3.414e-18
8558.1699 9.900e-17 3.425e-18
8559.4727 9.772e-17 3.403e-18
8560.7755 9.787e-17 3.406e-18
8562.0783 9.787e-17 3.410e-18
8563.3812 9.547e-17 3.372e-18
8564.6840 9.386e-17 3.360e-18
8565.9868 9.314e-17 3.359e-18
8567.2896 9.387e-17 3.363e-18
8568.5925 9.776e-17 3.412e-18
8569.8953 9.751e-17 3.418e-18
8571.1981 9.785e-17 3.434e-18
8572.5009 9.883e-17 3.446e-18
8573.8038 9.826e-17 3.441e-18
8575.1066 1.034e-16 3.509e-18
8576.4094 1.004e-16 3.483e-18
8577.7122 9.543e-17 3.427e-18
8579.0151 9.405e-17 3.417e-18
8580.3179 1.016e-16 3.483e-18
8581.6207 1.038e-16 3.492e-18
8582.9235 9.348e-17 3.388e-18
8584.2264 9.874e-17 3.426e-18
8585.5292 9.633e-17 3.413e-18
8586.8320 9.192e-17 3.419e-18
8588.1348 9.686e-17 3.537e-18
8589.4377 1.047e-16 3.641e-18
8590.7405 1.003e-16 3.594e-18
8592.0433 9.755e-17 3.560e-18
8593.3461 1.037e-16 3.571e-18
8594.6490 9.879e-17 3.486e-18
8595.9518 9.908e-17 3.543e-18
8597.2546 9.972e-17 3.633e-18
8598.5574 9.438e-17 3.604e-18
8599.8603 9.624e-17 3.616e-18
8601.1631 9.737e-17 3.604e-18
8602.4659 9.737e-17 3.520e-18
8603.7688 9.907e-17 3.469e-18
8605.0716 9.180e-17 3.406e-18
8606.3744 9.684e-17 3.457e-18
8607.6772 9.749e-17 3.466e-18
8608.9801 9.235e-17 3.426e-18
8610.2829 9.246e-17 3.433e-18
8611.5857 9.964e-17 3.508e-18
8612.8885 9.547e-17 3.482e-18
8614.1914 9.555e-17 3.521e-18
8615.4942 9.944e-17 3.590e-18
8616.7970 9.324e-17 3.569e-18
8618.0998 1.013e-16 3.693e-18
8619.4027 9.764e-17 3.703e-18
8620.7055 9.736e-17 3.746e-18
8622.0083 9.983e-17 3.822e-18
8623.3111 9.193e-17 3.800e-18
8624.6140 8.868e-17 3.841e-18
8625.9168 9.354e-17 3.911e-18
8627.2196 9.278e-17 3.948e-18
8628.5224 9.805e-17 4.043e-18
8629.8253 1.007e-16 4.069e-18
8631.1281 1.000e-16 4.087e-18
8632.4309 9.155e-17 4.028e-18
8633.7337 9.039e-17 3.976e-18
8635.0366 9.271e-17 3.982e-18
8636.3394 9.899e-17 4.015e-18
8637.6422 9.512e-17 3.914e-18
8638.9450 9.992e-17 3.912e-18
8640.2479 9.835e-17 3.875e-18
8641.5507 9.274e-17 3.760e-18
8642.8535 9.271e-17 3.681e-18
8644.1563 9.481e-17 3.646e-18
8645.4592 9.380e-17 3.617e-18
8646.7620 9.198e-17 3.598e-18
8648.0648 9.083e-17 3.600e-18
8649.3676 9.214e-17 3.720e-18
8650.6705 8.984e-17 3.853e-18
8651.9733 9.397e-17 3.935e-18
8653.2761 9.849e-17 4.009e-18
8654.5789 9.149e-17 4.032e-18
8655.8818 9.334e-17 4.047e-18
8657.1846 9.570e-17 4.003e-18
8658.4874 9.500e-17 4.043e-18
8659.7902 8.989e-17 4.070e-18
8661.0931 8.925e-17 3.991e-18
8662.3959 9.784e-17 4.018e-18
8663.6987 9.743e-17 4.071e-18
8665.0015 9.508e-17 4.052e-18
8666.3044 9.466e-17 3.957e-18
8667.6072 9.238e-17 3.913e-18
8668.9100 9.119e-17 3.957e-18
8670.2128 9.574e-17 3.971e-18
8671.5157 9.721e-17 3.900e-18
8672.8185 9.379e-17 3.833e-18
8674.1213 9.104e-17 3.839e-18
8675.4241 8.619e-17 3.758e-18
8676.7270 8.925e-17 3.729e-18
8678.0298 9.108e-17 3.722e-18
8679.3326 8.900e-17 3.704e-18
8680.6354 8.962e-17 3.697e-18
8681.9383 9.372e-17 3.693e-18
8683.2411 9.324e-17 3.662e-18
8684.5439 8.942e-17 3.633e-18
8685.8467 9.709e-17 3.701e-18
8687.1496 9.363e-17 3.634e-18
8688.4524 8.738e-17 3.542e-18
8689.7552 9.070e-17 3.588e-18
8691.0580 9.088e-17 3.585e-18
8692.3609 9.183e-17 3.584e-18
8693.6637 9.423e-17 3.588e-18
8694.9665 8.891e-17 3.536e-18
8696.2693 9.016e-17 3.568e-18
8697.5722 8.470e-17 3.508e-18
8698.8750 8.206e-17 3.484e-18
8700.1778 8.522e-17 3.530e-18
8701.4806 8.561e-17 3.556e-18
8702.7835 8.623e-17 3.559e-18
8704.0863 8.695e-17 3.563e-18
8705.3891 8.551e-17 3.533e-18
8706.6919 8.460e-17 3.538e-18
8707.9948 8.439e-17 3.546e-18
8709.2976 8.854e-17 3.590e-18
8710.6004 8.680e-17 3.573e-18
8711.9032 8.454e-17 3.540e-18
8713.2061 8.107e-17 3.473e-18
8714.5089 8.753e-17 3.518e-18
8715.8117 9.000e-17 3.560e-18
8717.1145 9.005e-17 3.557e-18
8718.4174 8.559e-17 3.507e-18
8719.7202 9.046e-17 3.563e-18
8721.0230 8.532e-17 3.525e-18
8722.3258 8.141e-17 3.483e-18
8723.6287 8.515e-17 3.523e-18
8724.9315 8.693e-17 3.539e-18
8726.2343 8.611e-17 3.569e-18
8727.5371 8.617e-17 3.559e-18
8728.8400 8.594e-17 3.563e-18
8730.1428 8.655e-17 3.560e-18
8731.4456 8.615e-17 3.563e-18
8732.7484 8.304e-17 3.503e-18
8734.0513 8.623e-17 3.531e-18
8735.3541 8.414e-17 3.515e-18
8736.6569 8.494e-17 3.534e-18
8737.9597 9.003e-17 3.600e-18
8739.2626 8.670e-17 3.578e-18
8740.5654 7.821e-17 3.484e-18
8741.8682 8.110e-17 3.522e-18
8743.1710 8.245e-17 3.541e-18
8744.4739 8.301e-17 3.558e-18
8745.7767 8.538e-17 3.596e-18
8747.0795 7.976e-17 3.518e-18
8748.3823 8.041e-17 3.520e-18
8749.6852 8.205e-17 3.537e-18
8750.9880 8.406e-17 3.573e-18
8752.2908 8.720e-17 3.615e-18
8753.5936 8.663e-17 3.607e-18
8754.8965 8.696e-17 3.602e-18
8756.1993 8.627e-17 3.612e-18
8757.5021 8.119e-17 3.736e-18
8758.8049 8.142e-17 3.998e-18
8760.1078 8.090e-17 4.490e-18
8761.4106 8.101e-17 4.984e-18
8762.7134 8.348e-17 5.134e-18
8764.0162 8.159e-17 4.989e-18
8765.3191 8.401e-17 4.979e-18
8766.6219 7.924e-17 5.097e-18
8767.9247 7.524e-17 5.256e-18
8769.2275 7.841e-17 5.401e-18
8770.5304 7.384e-17 5.314e-18
8771.8332 6.915e-17 5.021e-18
8773.1360 7.207e-17 4.340e-18
8774.4388 8.144e-17 3.902e-18
8775.7417 8.149e-17 4.175e-18
8777.0445 8.121e-17 4.842e-18
8778.3473 8.902e-17 5.586e-18
8779.6501 8.651e-17 5.746e-18
8780.9530 8.372e-17 5.570e-18
8782.2558 8.688e-17 5.252e-18
8783.5586 8.413e-17 4.536e-18
8784.8614 8.436e-17 3.769e-18
8786.1643 8.260e-17 3.633e-18
8787.4671 8.579e-17 3.674e-18
8788.7699 8.588e-17 3.722e-18
8790.0727 8.783e-17 4.006e-18
8791.3756 8.711e-17 4.349e-18
8792.6784 7.850e-17 4.315e-18
8793.9812 7.816e-17 4.302e-18
8795.2840 8.812e-17 4.331e-18
8796.5869 9.045e-17 4.047e-18
8797.8897 8.591e-17 3.716e-18
8799.1925 8.411e-17 3.667e-18
8800.4953 8.820e-17 3.723e-18
8801.7982 8.937e-17 3.745e-18
8803.1010 8.548e-17 3.700e-18
8804.4038 9.164e-17 3.758e-18
8805.7066 8.739e-17 3.713e-18
8807.0095 8.535e-17 3.697e-18
8808.3123 7.975e-17 3.654e-18
8809.6151 8.031e-17 3.714e-18
8810.9179 8.734e-17 3.812e-18
8812.2208 8.314e-17 3.749e-18
8813.5236 8.190e-17 3.751e-18
8814.8264 8.511e-17 3.763e-18
8816.1292 8.386e-17 3.703e-18
8817.4321 9.202e-17 3.793e-18
8818.7349 8.816e-17 3.762e-18
8820.0377 8.294e-17 3.704e-18
8821.3405 8.354e-17 3.725e-18
8822.6434 8.662e-17 3.770e-18
8823.9462 9.055e-17 3.978e-18
8825.2490 8.533e-17 4.775e-18
8826.5518 9.520e-17 6.656e-18
8827.8547 9.221e-17 7.437e-18
8829.1575 8.109e-17 7.426e-18
8830.4603 8.202e-17 7.346e-18
8831.7631 9.464e-17 6.750e-18
8833.0660 8.779e-17 4.910e-18
8834.3688 9.335e-17 4.337e-18
8835.6716 9.259e-17 5.050e-18
8836.9744 8.716e-17 5.490e-18
8838.2773 8.519e-17 5.459e-18
8839.5801 8.075e-17 5.347e-18
8840.8829 8.623e-17 5.157e-18
8842.1857 8.935e-17 4.369e-18
8843.4886 8.682e-17 3.860e-18
8844.7914 8.874e-17 3.869e-18
8846.0942 9.278e-17 3.937e-18
8847.3970 9.056e-17 3.931e-18
8848.6999 8.473e-17 4.093e-18
8850.0027 8.907e-17 4.399e-18
8851.3055 9.507e-17 4.499e-18
8852.6083 9.277e-17 4.448e-18
8853.9112 8.957e-17 4.373e-18
8855.2140 9.016e-17 4.125e-18
8856.5168 8.895e-17 3.873e-18
8857.8196 9.498e-17 3.912e-18
8859.1225 9.035e-17 3.877e-18
8860.4253 8.544e-17 3.826e-18
8861.7281 8.864e-17 3.897e-18
8863.0309 8.492e-17 3.906e-18
8864.3338 8.558e-17 3.915e-18
8865.6366 8.948e-17 4.125e-18
8866.9394 8.670e-17 4.651e-18
8868.2422 8.422e-17 5.021e-18
8869.5451 9.292e-17 5.096e-18
8870.8479 9.128e-17 5.097e-18
8872.1507 8.496e-17 4.803e-18
8873.4535 9.188e-17 4.269e-18
8874.7564 9.495e-17 3.954e-18
8876.0592 9.396e-17 3.931e-18
8877.3620 9.129e-17 3.899e-18
8878.6648 9.250e-17 3.908e-18
8879.9677 8.911e-17 3.869e-18
8881.2705 9.039e-17 3.906e-18
8882.5733 9.101e-17 3.927e-18
8883.8762 8.972e-17 4.375e-18
8885.1790 9.166e-17 5.800e-18
8886.4818 9.607e-17 6.864e-18
8887.7846 9.200e-17 6.886e-18
8889.0875 9.263e-17 6.905e-18
8890.3903 9.059e-17 6.416e-18
8891.6931 8.510e-17 4.924e-18
8892.9959 8.623e-17 3.970e-18
8894.2988 9.199e-17 3.983e-18
8895.6016 9.496e-17 4.019e-18
8896.9044 9.189e-17 3.977e-18
8898.2072 9.319e-17 3.999e-18
8899.5101 8.690e-17 3.929e-18
8900.8129 9.154e-17 4.075e-18
8902.1157 9.531e-17 4.657e-18
8903.4185 9.485e-17 5.298e-18
8904.7214 8.891e-17 5.344e-18
8906.0242 9.041e-17 5.361e-18
8907.3270 9.770e-17 5.293e-18
8908.6298 9.241e-17 4.639e-18
8909.9327 8.489e-17 4.035e-18
8911.2355 8.709e-17 3.967e-18
8912.5383 9.137e-17 4.005e-18
8913.8411 9.749e-17 4.038e-18
8915.1440 9.073e-17 3.969e-18
8916.4468 8.855e-17 3.968e-18
8917.7496 8.907e-17 4.444e-18
8919.0524 9.504e-17 6.267e-18
8920.3553 9.058e-17 7.184e-18
8921.6581 9.445e-17 7.284e-18
8922.9609 9.397e-17 7.270e-18
8924.2637 8.500e-17 6.717e-18
8925.5666 8.756e-17 4.947e-18
8926.8694 8.967e-17 4.093e-18
8928.1722 9.467e-17 4.101e-18
8929.4750 1.004e-16 4.177e-18
8930.7779 8.868e-17 4.046e-18
8932.0807 8.944e-17 4.026e-18
8933.3835 8.912e-17 4.002e-18
8934.6863 9.091e-17 3.993e-18
8935.9892 8.984e-17 3.982e-18
8937.2920 9.020e-17 3.992e-18
8938.5948 8.960e-17 3.980e-18
8939.8976 9.084e-17 3.995e-18
8941.2005 8.855e-17 4.037e-18
8942.5033 1.003e-16 4.696e-18
8943.8061 1.014e-16 5.201e-18
8945.1089 9.366e-17 5.221e-18
8946.4118 9.368e-17 5.213e-18
8947.7146 8.584e-17 5.031e-18
8949.0174 8.303e-17 4.402e-18
8950.3202 9.097e-17 4.012e-18
8951.6231 9.091e-17 3.979e-18
8952.9259 8.791e-17 3.939e-18
8954.2287 8.703e-17 3.945e-18
8955.5315 8.866e-17 4.029e-18
8956.8344 8.878e-17 4.981e-18
8958.1372 8.278e-17 6.197e-18
8959.4400 8.047e-17 6.527e-18
8960.7428 8.013e-17 6.511e-18
8962.0457 8.404e-17 6.422e-18
8963.3485 8.903e-17 5.494e-18
8964.6513 8.324e-17 4.184e-18
8965.9541 8.064e-17 3.887e-18
8967.2570 8.600e-17 3.924e-18
8968.5598 8.772e-17 3.920e-18
8969.8626 8.677e-17 3.954e-18
8971.1654 8.913e-17 4.029e-18
8972.4683 8.659e-17 4.006e-18
8973.7711 8.110e-17 3.960e-18
8975.0739 8.693e-17 4.015e-18
8976.3767 8.781e-17 3.974e-18
8977.6796 8.610e-17 3.945e-18
8978.9824 8.593e-17 3.951e-18
8980.2852 8.227e-17 3.931e-18
8981.5880 8.801e-17 4.015e-18
8982.8909 8.508e-17 3.992e-18
8984.1937 8.158e-17 3.940e-18
8985.4965 8.462e-17 3.992e-18
8986.7993 8.984e-17 4.218e-18
8988.1022 8.349e-17 4.557e-18
8989.4050 7.707e-17 4.652e-18
8990.7078 6.833e-17 4.585e-18
8992.0106 6.575e-17 4.548e-18
8993.3135 6.687e-17 4.376e-18
8994.6163 7.659e-17 4.013e-18
8995.9191 8.268e-17 3.965e-18
8997.2219 8.689e-17 3.997e-18
8998.5248 8.398e-17 3.980e-18
8999.8276 8.336e-17 4.314e-18
9001.1304 8.451e-17 5.215e-18
9002.4332 8.051e-17 5.480e-18
9003.7361 8.236e-17 5.526e-18
9005.0389 8.532e-17 5.500e-18
9006.3417 8.801e-17 5.091e-18
9007.6445 8.283e-17 4.165e-18
9008.9474 9.055e-17 3.965e-18
9010.2502 8.688e-17 3.898e-18
9011.5530 7.896e-17 3.835e-18
9012.8558 8.086e-17 3.827e-18
9014.1587 8.078e-17 3.828e-18
9015.4615 8.300e-17 3.869e-18
9016.7643 7.917e-17 3.835e-18
9018.0671 7.652e-17 3.791e-18
9019.3700 7.863e-17 3.824e-18
9020.6728 7.618e-17 3.835e-18
9021.9756 8.176e-17 3.913e-18
9023.2784 8.850e-17 3.989e-18
9024.5813 8.369e-17 3.936e-18
9025.8841 8.405e-17 3.930e-18
9027.1869 8.209e-17 3.906e-18
9028.4897 7.844e-17 3.858e-18
9029.7926 7.643e-17 3.835e-18
9031.0954 7.880e-17 3.888e-18
9032.3982 8.680e-17 3.971e-18
9033.7010 8.886e-17 3.986e-18
9035.0039 8.341e-17 3.917e-18
9036.3067 8.314e-17 3.964e-18
9037.6095 8.675e-17 4.224e-18
9038.9123 8.323e-17 4.342e-18
9040.2152 8.085e-17 4.316e-18
9041.5180 8.212e-17 4.340e-18
9042.8208 7.913e-17 4.203e-18
9044.1236 7.711e-17 3.953e-18
9045.4265 7.713e-17 3.863e-18
9046.7293 7.749e-17 3.870e-18
9048.0321 8.210e-17 4.107e-18
9049.3349 8.625e-17 4.569e-18
9050.6378 8.377e-17 4.734e-18
9051.9406 8.140e-17 4.694e-18
9053.2434 8.461e-17 4.719e-18
9054.5462 8.376e-17 4.456e-18
9055.8491 8.175e-17 4.029e-18
9057.1519 8.662e-17 3.949e-18
9058.4547 8.730e-17 3.959e-18
9059.7575 8.800e-17 3.975e-18
9061.0604 8.286e-17 3.901e-18
9062.3632 7.623e-17 3.816e-18
9063.6660 7.732e-17 3.831e-18
9064.9688 8.078e-17 3.896e-18
9066.2717 7.696e-17 3.866e-18
9067.5745 7.494e-17 3.860e-18
9068.8773 8.171e-17 3.941e-18
9070.1801 7.830e-17 3.882e-18
9071.4830 7.456e-17 3.829e-18
9072.7858 8.076e-17 3.913e-18
9074.0886 7.429e-17 3.809e-18
9075.3914 7.113e-17 3.763e-18
9076.6943 7.435e-17 3.798e-18
9077.9971 8.032e-17 3.876e-18
9079.2999 7.747e-17 3.839e-18
9080.6027 7.876e-17 3.847e-18
9081.9056 7.597e-17 3.816e-18
9083.2084 7.728e-17 3.837e-18
9084.5112 7.652e-17 3.830e-18
9085.8140 8.187e-17 3.892e-18
9087.1169 8.138e-17 3.903e-18
9088.4197 7.737e-17 3.874e-18
9089.7225 7.754e-17 3.878e-18
9091.0253 7.462e-17 3.870e-18
9092.3282 6.963e-17 3.933e-18
9093.6310 7.594e-17 4.066e-18
9094.9338 7.703e-17 4.119e-18
9096.2366 8.012e-17 4.161e-18
9097.5395 7.844e-17 4.070e-18
9098.8423 7.544e-17 3.926e-18
9100.1451 7.519e-17 3.876e-18
9101.4479 8.097e-17 4.043e-18
9102.7508 7.476e-17 4.170e-18
9104.0536 6.964e-17 4.182e-18
9105.3564 8.123e-17 4.301e-18
9106.6592 8.396e-17 4.303e-18
9107.9621 7.963e-17 4.131e-18
9109.2649 7.822e-17 3.945e-18
9110.5677 7.702e-17 3.883e-18
9111.8705 8.199e-17 3.947e-18
9113.1734 8.039e-17 3.915e-18
9114.4762 8.183e-17 3.921e-18
9115.7790 8.151e-17 3.933e-18
9117.0818 8.361e-17 3.974e-18
9118.3847 8.209e-17 3.951e-18
9119.6875 7.779e-17 3.904e-18
9120.9903 7.289e-17 3.851e-18
9122.2931 7.660e-17 3.887e-18
9123.5960 7.918e-17 3.937e-18
9124.8988 7.832e-17 3.942e-18
9126.2016 7.811e-17 3.922e-18
9127.5044 7.927e-17 3.946e-18
9128.8073 8.441e-17 4.012e-18
9130.1101 8.400e-17 3.979e-18
9131.4129 7.740e-17 3.890e-18
9132.7157 7.838e-17 3.926e-18
9134.0186 8.480e-17 4.015e-18
9135.3214 7.969e-17 3.942e-18
9136.6242 7.614e-17 3.918e-18
9137.9270 7.419e-17 3.892e-18
9139.2299 7.539e-17 3.900e-18
9140.5327 8.011e-17 3.972e-18
9141.8355 8.094e-17 3.985e-18
9143.1383 9.116e-17 4.117e-18
9144.4412 8.951e-17 4.099e-18
9145.7440 8.229e-17 4.000e-18
9147.0468 8.214e-17 4.014e-18
9148.3496 7.799e-17 3.985e-18
9149.6525 8.089e-17 4.025e-18
9150.9553 9.285e-17 4.228e-18
9152.2581 9.332e-17 4.308e-18
9153.5609 8.972e-17 4.289e-18
9154.8638 8.213e-17 4.230e-18
9156.1666 8.152e-17 4.221e-18
9157.4694 8.276e-17 4.169e-18
9158.7722 8.215e-17 4.115e-18
9160.0751 8.701e-17 4.270e-18
9161.3779 8.859e-17 4.374e-18
9162.6807 8.868e-17 4.365e-18
9163.9835 8.676e-17 4.344e-18
9165.2864 8.894e-17 4.342e-18
9166.5892 8.568e-17 4.192e-18
9167.8920 8.642e-17 4.096e-18
9169.1949 9.106e-17 4.150e-18
9170.4977 9.014e-17 4.159e-18
9171.8005 8.548e-17 4.100e-18
9173.1033 9.060e-17 4.165e-18
9174.4062 9.598e-17 4.222e-18
9175.7090 9.270e-17 4.181e-18
9177.0118 8.358e-17 4.083e-18
9178.3146 8.649e-17 4.114e-18
9179.6175 9.003e-17 4.146e-18
9180.9203 9.096e-17 4.165e-18
9182.2231 8.719e-17 4.157e-18
9183.5259 9.096e-17 4.193e-18
9184.8288 8.916e-17 4.172e-18
9186.1316 8.739e-17 4.160e-18
9187.4344 8.743e-17 4.153e-18
9188.7372 8.971e-17 4.186e-18
9190.0401 9.019e-17 4.208e-18
9191.3429 9.087e-17 4.196e-18
9192.6457 8.781e-17 4.165e-18
9193.9485 9.219e-17 4.225e-18
9195.2514 8.851e-17 4.177e-18
9196.5542 8.264e-17 4.096e-18
9197.8570 8.403e-17 4.120e-18
9199.1598 9.215e-17 4.212e-18
9200.4627 9.639e-17 4.287e-18
9201.7655 9.363e-17 4.272e-18
9203.0683 9.573e-17 4.296e-18
9204.3711 9.705e-17 4.327e-18
9205.6740 8.700e-17 4.200e-18
9206.9768 9.095e-17 4.251e-18
9208.2796 9.433e-17 4.305e-18
9209.5824 8.502e-17 4.196e-18
9210.8853 8.646e-17 4.232e-18
9212.1881 9.249e-17 4.299e-18
9213.4909 9.194e-17 4.290e-18
9214.7937 8.676e-17 4.274e-18
9216.0966 8.891e-17 4.361e-18
9217.3994 9.094e-17 4.435e-18
9218.7022 8.515e-17 4.383e-18
9220.0050 8.204e-17 4.348e-18
9221.3079 8.976e-17 4.404e-18
9222.6107 9.794e-17 4.441e-18
9223.9135 9.603e-17 4.461e-18
9225.2163 9.166e-17 4.496e-18
9226.5192 8.727e-17 4.453e-18
9227.8220 9.400e-17 4.546e-18
9229.1248 9.207e-17 4.486e-18
9230.4276 9.365e-17 4.450e-18
9231.7305 9.801e-17 4.440e-18
9233.0333 9.597e-17 4.398e-18
9234.3361 8.824e-17 4.320e-18
9235.6389 9.188e-17 4.360e-18
9236.9418 8.872e-17 4.316e-18
9238.2446 9.538e-17 4.403e-18
9239.5474 9.776e-17 4.409e-18
9240.8502 8.918e-17 4.334e-18
9242.1531 8.857e-17 4.331e-18
9243.4559 8.906e-17 4.320e-18
9244.7587 9.712e-17 4.444e-18
9246.0615 9.918e-17 4.468e-18
9247.3644 9.233e-17 4.421e-18
9248.6672 1.005e-16 4.539e-18
9249.9700 9.300e-17 4.471e-18
9251.2728 9.075e-17 4.480e-18
9252.5757 9.535e-17 4.540e-18
9253.8785 1.012e-16 4.605e-18
9255.1813 9.599e-17 4.526e-18
9256.4841 9.324e-17 4.489e-18
9257.7870 9.372e-17 4.479e-18
9259.0898 9.403e-17 4.460e-18
9260.3926 9.510e-17 4.477e-18
9261.6954 9.372e-17 4.519e-18
9262.9983 9.215e-17 4.526e-18
9264.3011 8.949e-17 4.543e-18
9265.6039 8.847e-17 4.553e-18
9266.9067 8.736e-17 4.524e-18
9268.2096 9.100e-17 4.542e-18
9269.5124 9.253e-17 4.530e-18
9270.8152 8.847e-17 4.475e-18
9272.1180 9.239e-17 4.508e-18
9273.4209 9.279e-17 4.512e-18
9274.7237 9.096e-17 4.484e-18
9276.0265 8.808e-17 4.446e-18
9277.3293 9.400e-17 4.535e-18
9278.6322 9.375e-17 4.526e-18
9279.9350 9.081e-17 4.488e-18
9281.2378 8.999e-17 4.481e-18
9282.5406 9.514e-17 4.541e-18
9283.8435 9.368e-17 4.529e-18
9285.1463 9.223e-17 4.556e-18
9286.4491 9.535e-17 4.653e-18
9287.7519 8.966e-17 4.601e-18
9289.0548 8.712e-17 4.624e-18
9290.3576 8.877e-17 4.657e-18
9291.6604 9.090e-17 4.645e-18
9292.9632 9.322e-17 4.708e-18
9294.2661 8.749e-17 4.667e-18
9295.5689 8.296e-17 4.606e-18
9296.8717 8.356e-17 4.620e-18
9298.1745 8.251e-17 4.601e-18
9299.4774 7.967e-17 4.514e-18
9300.7802 7.864e-17 4.474e-18
9302.0830 8.648e-17 4.550e-18
9303.3858 8.786e-17 4.606e-18
9304.6887 8.643e-17 4.891e-18
9305.9915 8.404e-17 5.793e-18
9307.2943 8.566e-17 6.867e-18
9308.5971 8.734e-17 7.340e-18
9309.9000 8.436e-17 7.463e-18
9311.2028 7.654e-17 7.529e-18
9312.5056 7.422e-17 7.977e-18
9313.8084 6.783e-17 8.373e-18
9315.1113 7.876e-17 8.307e-18
9316.4141 7.816e-17 8.230e-18
9317.7169 7.094e-17 7.844e-18
9319.0197 7.393e-17 6.437e-18
9320.3226 7.170e-17 5.138e-18
9321.6254 7.093e-17 5.373e-18
9322.9282 6.930e-17 6.603e-18
9324.2310 7.913e-17 7.656e-18
9325.5339 7.556e-17 7.773e-18
9326.8367 6.184e-17 7.651e-18
9328.1395 5.972e-17 7.188e-18
9329.4423 6.811e-17 5.859e-18
9330.7452 6.918e-17 4.837e-18
9332.0480 6.848e-17 4.688e-18
9333.3508 7.571e-17 4.765e-18
9334.6536 7.962e-17 4.777e-18
9335.9565 6.434e-17 4.628e-18
9337.2593 6.247e-17 5.068e-18
9338.5621 6.517e-17 5.455e-18
9339.8649 6.943e-17 5.563e-18
9341.1678 7.537e-17 5.609e-18
9342.4706 7.413e-17 5.414e-18
9343.7734 7.060e-17 4.836e-18
9345.0762 6.205e-17 4.401e-18
9346.3791 4.559e-17 4.134e-18
9347.6819 4.646e-17 4.209e-18
9348.9847 6.452e-17 4.582e-18
9350.2875 6.689e-17 4.695e-18
9351.5904 7.689e-17 4.881e-18
9352.8932 8.335e-17 4.956e-18
9354.1960 7.547e-17 4.784e-18
9355.4988 6.625e-17 4.567e-18
9356.8017 5.991e-17 4.403e-18
9358.1045 6.233e-17 4.443e-18
9359.4073 6.665e-17 4.514e-18
9360.7101 6.051e-17 4.463e-18
9362.0130 6.016e-17 4.518e-18
9363.3158 6.995e-17 4.662e-18
9364.6186 7.753e-17 4.757e-18
9365.9214 8.208e-17 4.842e-18
9367.2243 7.495e-17 4.749e-18
9368.5271 6.337e-17 4.625e-18
9369.8299 5.935e-17 4.598e-18
9371.1327 6.235e-17 4.664e-18
9372.4356 6.228e-17 4.890e-18
9373.7384 6.535e-17 5.788e-18
9375.0412 6.143e-17 8.275e-18
9376.3440 6.623e-17 1.067e-17
9377.6469 9.166e-17 1.123e-17
9378.9497 7.191e-17 1.110e-17
9380.2525 7.256e-17 1.047e-17
9381.5553 7.304e-17 8.121e-18
9382.8582 5.866e-17 5.402e-18
9384.1610 6.243e-17 5.031e-18
9385.4638 6.817e-17 5.107e-18
9386.7666 7.170e-17 5.269e-18
9388.0695 6.816e-17 5.195e-18
9389.3723 6.763e-17 5.033e-18
9390.6751 7.010e-17 5.027e-18
9391.9779 7.868e-17 5.025e-18
9393.2808 8.234e-17 4.929e-18
9394.5836 8.528e-17 4.931e-18
9395.8864 8.920e-17 5.014e-18
9397.1892 7.956e-17 4.960e-18
9398.4921 8.196e-17 5.046e-18
9399.7949 8.644e-17 5.123e-18
9401.0977 8.309e-17 5.485e-18
9402.4005 7.591e-17 5.884e-18
9403.7034 7.200e-17 5.955e-18
9405.0062 8.183e-17 6.046e-18
9406.3090 8.783e-17 6.056e-18
9407.6118 8.525e-17 5.556e-18
9408.9147 8.434e-17 5.068e-18
9410.2175 8.141e-17 4.944e-18
9411.5203 7.253e-17 4.811e-18
9412.8231 7.462e-17 4.799e-18
9414.1260 7.430e-17 4.792e-18
9415.4288 7.428e-17 4.852e-18
9416.7316 8.248e-17 5.018e-18
9418.0344 8.277e-17 5.333e-18
9419.3373 7.776e-17 6.231e-18
9420.6401 7.182e-17 6.746e-18
9421.9429 8.225e-17 6.958e-18
9423.2457 8.765e-17 7.010e-18
9424.5486 8.229e-17 6.611e-18
9425.8514 7.714e-17 5.646e-18
9427.1542 7.801e-17 5.149e-18
9428.4570 6.574e-17 4.879e-18
9429.7599 5.325e-17 4.620e-18
9431.0627 5.301e-17 4.587e-18
9432.3655 6.461e-17 4.772e-18
9433.6683 7.319e-17 4.926e-18
9434.9712 7.748e-17 5.055e-18
9436.2740 7.951e-17 5.133e-18
9437.5768 8.547e-17 5.672e-18
9438.8796 8.671e-17 7.691e-18
9440.1825 7.041e-17 9.310e-18
9441.4853 7.235e-17 9.618e-18
9442.7881 8.992e-17 9.767e-18
9444.0909 7.725e-17 9.221e-18
9445.3938 6.596e-17 7.193e-18
9446.6966 6.927e-17 5.404e-18
9447.9994 7.110e-17 5.203e-18
9449.3023 7.596e-17 5.267e-18
9450.6051 7.587e-17 5.272e-18
9451.9079 7.942e-17 5.316e-18
9453.2107 7.188e-17 5.144e-18
9454.5136 6.795e-17 5.034e-18
9455.8164 7.182e-17 5.105e-18
9457.1192 6.889e-17 5.710e-18
9458.4220 6.509e-17 6.893e-18
9459.7249 5.328e-17 7.318e-18
9461.0277 5.608e-17 7.354e-18
9462.3305 6.481e-17 7.374e-18
9463.6333 5.797e-17 6.639e-18
9464.9362 6.537e-17 5.450e-18
9466.2390 7.201e-17 5.106e-18
9467.5418 7.735e-17 5.141e-18
9468.8446 7.394e-17 5.097e-18
9470.1475 7.649e-17 5.128e-18
9471.4503 7.203e-17 5.058e-18
9472.7531 6.949e-17 5.056e-18
9474.0559 7.260e-17 5.221e-18
9475.3588 7.139e-17 6.324e-18
9476.6616 7.724e-17 8.751e-18
9477.9644 6.602e-17 9.643e-18
9479.2672 7.210e-17 9.794e-18
9480.5701 8.147e-17 9.751e-18
9481.8729 8.491e-17 8.807e-18
9483.1757 7.875e-17 6.452e-18
9484.4785 6.805e-17 5.276e-18
9485.7814 6.565e-17 5.123e-18
9487.0842 7.735e-17 5.226e-18
9488.3870 7.798e-17 5.203e-18
9489.6898 7.830e-17 5.238e-18
9490.9927 8.310e-17 5.326e-18
9492.2955 8.501e-17 5.358e-18
9493.5983 7.702e-17 5.264e-18
9494.9011 7.283e-17 5.189e-18
9496.2040 6.961e-17 5.131e-18
9497.5068 5.666e-17 4.945e-18
9498.8096 6.004e-17 4.997e-18
